* Measurement data measured by REW V5.19
* Source: ASIO MOTU M Series, In 1
* Format: 1M Log Swept Sine, 2 sweeps at -10.0 dBFS  With no timing reference
* Dated: 16 Sep, 2020 6:05:13 PM
* REW Settings:
*  C-weighting compensation: Off
*  Target level: 75.0 dB
* Note: ; 
* Measurement: Sep 16 18:05:13
* Smoothing: None
* Frequency Step: 1/48 octave
* Start Frequency: 10.0 Hz
*
* Freq(Hz), SPL(dB), Phase(degrees)
10.145, 49.679, -37.546
10.293, 49.881, -38.831
10.443, 50.068, -40.051
10.595, 50.248, -41.276
10.749, 50.424, -42.483
10.905, 50.594, -43.680
11.064, 50.762, -44.863
11.225, 50.925, -46.031
11.388, 51.084, -47.185
11.554, 51.238, -48.328
11.722, 51.385, -49.441
11.892, 51.522, -50.520
12.065, 51.651, -51.541
12.241, 51.771, -52.472
12.419, 51.884, -53.304
12.599, 51.996, -53.998
12.782, 52.109, -54.565
12.968, 52.232, -55.006
13.157, 52.368, -55.345
13.348, 52.521, -55.639
13.543, 52.689, -55.915
13.740, 52.871, -56.243
13.939, 53.057, -56.621
14.142, 53.241, -57.080
14.348, 53.416, -57.563
14.557, 53.577, -58.058
14.768, 53.728, -58.473
14.983, 53.872, -58.794
15.201, 54.024, -58.975
15.422, 54.192, -59.076
15.646, 54.389, -59.126
15.874, 54.616, -59.297
16.105, 54.869, -59.650
16.339, 55.132, -60.323
16.577, 55.381, -61.304
16.818, 55.599, -62.586
17.063, 55.764, -64.034
17.311, 55.874, -65.475
17.563, 55.930, -66.776
17.818, 55.955, -67.729
18.077, 55.984, -68.306
18.340, 56.047, -68.561
18.607, 56.175, -68.662
18.877, 56.369, -68.963
19.152, 56.600, -69.639
19.431, 56.832, -70.786
19.713, 57.016, -72.327
20.000, 57.125, -73.934
20.291, 57.170, -75.289
20.586, 57.184, -76.150
20.885, 57.221, -76.418
21.189, 57.344, -76.309
21.497, 57.565, -76.325
21.810, 57.839, -76.812
22.127, 58.102, -77.822
22.449, 58.300, -79.100
22.776, 58.425, -80.208
23.107, 58.523, -80.778
23.443, 58.677, -80.814
23.784, 58.945, -80.829
24.130, 59.296, -81.508
24.481, 59.628, -83.147
24.837, 59.837, -85.471
25.198, 59.872, -87.800
25.565, 59.768, -89.367
25.937, 59.638, -89.741
26.314, 59.616, -89.197
26.697, 59.755, -88.612
27.085, 59.985, -88.737
27.479, 60.188, -89.627
27.879, 60.300, -90.773
28.284, 60.343, -91.605
28.696, 60.393, -91.938
29.113, 60.510, -92.075
29.537, 60.685, -92.470
29.966, 60.858, -93.281
30.402, 60.985, -94.276
30.844, 61.067, -95.089
31.293, 61.154, -95.531
31.748, 61.304, -95.805
32.210, 61.518, -96.400
32.678, 61.727, -97.628
33.154, 61.842, -99.253
33.636, 61.845, -100.550
34.125, 61.833, -100.977
34.621, 61.940, -100.874
35.125, 62.176, -101.279
35.636, 62.401, -102.632
36.154, 62.517, -104.318
36.680, 62.572, -105.575
37.214, 62.670, -106.528
37.755, 62.799, -107.805
38.304, 62.863, -109.320
38.861, 62.868, -110.323
39.427, 62.940, -110.721
40.000, 63.110, -111.386
40.582, 63.265, -112.675
41.172, 63.336, -113.949
41.771, 63.396, -114.847
42.379, 63.489, -115.785
42.995, 63.546, -116.958
43.620, 63.545, -117.895
44.255, 63.564, -118.359
44.898, 63.660, -118.821
45.552, 63.797, -119.790
46.214, 63.884, -121.326
46.886, 63.858, -122.835
47.568, 63.798, -123.503
48.260, 63.869, -123.811
48.962, 63.992, -124.979
49.674, 63.970, -126.400
50.397, 63.907, -126.754
51.130, 63.989, -126.806
51.874, 64.092, -127.499
52.628, 64.151, -128.013
53.394, 64.289, -128.530
54.170, 64.395, -129.786
54.958, 64.387, -130.640
55.758, 64.473, -130.831
56.569, 64.646, -131.781
57.391, 64.721, -133.163
58.226, 64.769, -134.180
59.073, 64.842, -135.370
59.932, 64.865, -136.754
60.804, 64.861, -137.969
61.688, 64.863, -139.206
62.586, 64.851, -140.608
63.496, 64.796, -142.083
64.420, 64.698, -143.334
65.357, 64.602, -144.243
66.307, 64.521, -145.072
67.272, 64.391, -145.833
68.250, 64.225, -145.798
69.243, 64.173, -145.402
70.250, 64.090, -145.471
71.272, 63.988, -144.705
72.309, 64.031, -144.219
73.360, 64.012, -144.163
74.427, 64.031, -143.820
75.510, 64.065, -143.657
76.608, 64.163, -143.297
77.723, 64.293, -143.560
78.853, 64.360, -143.687
80.000, 64.496, -143.764
81.164, 64.582, -144.419
82.344, 64.633, -144.662
83.542, 64.712, -145.184
84.757, 64.776, -145.561
85.990, 64.863, -146.240
87.241, 64.930, -146.804
88.510, 65.009, -147.535
89.797, 65.049, -148.327
91.103, 65.077, -148.731
92.428, 65.163, -149.530
93.773, 65.161, -150.168
95.137, 65.223, -150.660
96.520, 65.293, -151.280
97.924, 65.296, -152.254
99.349, 65.302, -152.279
100.794, 65.379, -153.224
102.260, 65.365, -153.749
103.747, 65.402, -154.598
105.256, 65.426, -155.227
106.787, 65.451, -156.055
108.340, 65.462, -156.894
109.916, 65.446, -157.506
111.515, 65.414, -158.101
113.137, 65.396, -158.564
114.783, 65.343, -158.706
116.452, 65.372, -159.171
118.146, 65.378, -159.417
119.865, 65.375, -159.946
121.608, 65.431, -160.723
123.377, 65.407, -161.060
125.171, 65.390, -161.344
126.992, 65.350, -162.222
128.839, 65.310, -162.792
130.713, 65.312, -163.154
132.615, 65.251, -163.437
134.543, 65.252, -163.631
136.500, 65.234, -164.492
138.486, 65.168, -164.379
140.500, 65.129, -164.887
142.544, 65.153, -164.972
144.617, 65.139, -164.931
146.721, 65.126, -165.255
148.855, 65.091, -165.216
151.020, 65.092, -165.094
153.217, 65.102, -165.158
155.445, 65.170, -165.098
157.706, 65.184, -165.172
160.000, 65.266, -165.313
162.327, 65.295, -165.278
164.688, 65.401, -166.274
167.084, 65.475, -166.737
169.514, 65.505, -167.071
171.980, 65.535, -167.764
174.481, 65.561, -168.245
177.019, 65.582, -168.904
179.594, 65.609, -169.507
182.206, 65.557, -170.787
184.856, 65.526, -170.348
187.545, 65.622, -171.901
190.273, 65.459, -171.643
193.041, 65.480, -171.586
195.849, 65.496, -172.764
198.697, 65.470, -173.048
201.587, 65.282, -173.865
204.520, 65.239, -174.618
207.494, 65.362, -174.191
210.512, 65.399, -175.188
213.574, 65.634, -176.210
216.681, 65.426, -177.620
219.833, 65.466, -179.046
223.030, 65.166, -177.052
226.274, 65.380, -179.010
229.565, 65.242, 179.136
232.905, 65.187, 179.268
236.292, 65.113, 177.885
239.729, 64.983, 177.140
243.216, 64.822, 176.228
246.754, 64.674, 175.218
250.343, 64.461, 175.001
253.984, 64.292, 174.880
257.678, 64.100, 174.659
261.426, 63.857, 174.015
265.229, 63.896, 174.214
269.087, 63.523, 173.012
273.001, 62.994, 173.709
276.972, 62.817, 176.553
281.000, 62.821, 177.606
285.088, 62.800, 178.913
289.234, 62.801, 179.093
293.441, 62.724, 179.257
297.710, 62.611, 179.224
302.040, 62.332, -179.915
306.433, 62.181, -177.709
310.890, 62.294, -175.747
315.412, 62.438, -175.087
320.000, 62.494, -174.774
324.655, 62.473, -174.695
329.377, 62.440, -174.452
334.168, 62.355, -174.088
339.028, 62.306, -173.154
343.959, 62.305, -171.956
348.962, 62.319, -170.642
354.038, 62.373, -170.135
359.188, 62.461, -169.339
364.412, 62.501, -169.118
369.713, 62.569, -168.423
375.090, 62.588, -168.384
380.546, 62.646, -167.774
386.081, 62.709, -167.793
391.697, 62.695, -167.091
397.395, 62.780, -167.069
403.175, 62.785, -166.377
409.039, 62.864, -166.321
414.989, 62.879, -165.893
421.025, 62.885, -165.881
427.149, 62.968, -165.191
433.362, 63.066, -165.113
439.665, 63.001, -164.074
446.060, 62.985, -165.371
452.548, 63.300, -164.811
459.131, 62.990, -164.369
465.809, 63.184, -164.237
472.584, 63.109, -164.279
479.458, 63.199, -163.470
486.432, 63.222, -162.948
493.507, 63.289, -162.612
500.686, 63.344, -162.213
507.968, 63.376, -161.812
515.357, 63.426, -161.537
522.853, 63.484, -161.353
530.458, 63.545, -161.074
538.174, 63.604, -160.816
546.002, 63.662, -160.826
553.943, 63.672, -160.848
562.001, 63.781, -160.072
570.175, 63.837, -159.941
578.469, 63.897, -159.843
586.883, 63.959, -159.552
595.419, 64.026, -159.387
604.080, 64.126, -159.422
612.866, 64.229, -159.344
621.780, 64.289, -159.070
630.824, 64.366, -159.503
640.000, 64.372, -159.510
649.309, 64.403, -159.692
658.753, 64.443, -159.632
668.335, 64.481, -159.433
678.056, 64.527, -159.368
687.919, 64.607, -159.356
697.925, 64.661, -159.525
708.076, 64.682, -159.046
718.376, 64.709, -159.684
728.825, 64.822, -159.653
739.426, 64.845, -159.569
750.181, 64.994, -159.942
761.093, 65.003, -160.737
772.163, 65.003, -161.365
783.394, 64.912, -162.040
794.789, 64.724, -162.332
806.349, 64.516, -161.585
818.078, 64.353, -159.785
829.977, 64.374, -157.263
842.050, 64.576, -155.250
854.297, 64.870, -153.983
866.724, 65.225, -153.552
879.330, 65.574, -153.765
892.120, 65.846, -154.610
905.097, 66.073, -155.769
918.262, 66.220, -156.977
931.618, 66.312, -158.275
945.169, 66.396, -159.267
958.917, 66.443, -160.593
972.864, 66.460, -161.644
987.015, 66.466, -162.795
1001.371, 66.444, -163.679
1015.937, 66.395, -164.547
1030.714, 66.351, -165.432
1045.706, 66.287, -166.045
1060.916, 66.213, -166.734
1076.347, 66.136, -167.292
1092.003, 66.043, -167.776
1107.887, 65.957, -168.048
1124.001, 65.864, -168.433
1140.350, 65.767, -168.650
1156.937, 65.679, -168.819
1173.765, 65.551, -168.886
1190.838, 65.470, -169.004
1208.159, 65.359, -169.043
1225.732, 65.303, -169.036
1243.561, 65.208, -168.968
1261.649, 65.099, -169.014
1280.000, 64.938, -168.963
1298.618, 64.816, -168.377
1317.507, 64.679, -167.820
1336.670, 64.560, -166.917
1356.113, 64.496, -166.053
1375.838, 64.458, -165.180
1395.850, 64.415, -164.556
1416.153, 64.356, -163.457
1436.751, 64.346, -162.892
1457.649, 64.319, -162.083
1478.851, 64.304, -161.497
1500.362, 64.305, -160.853
1522.185, 64.259, -160.045
1544.326, 64.254, -159.224
1566.789, 64.242, -158.469
1589.578, 64.249, -157.616
1612.699, 64.243, -156.856
1636.156, 64.276, -155.557
1659.955, 64.279, -155.023
1684.099, 64.289, -154.125
1708.595, 64.296, -153.142
1733.447, 64.307, -152.069
1758.661, 64.366, -150.989
1784.241, 64.438, -150.110
1810.193, 64.497, -149.261
1836.523, 64.538, -148.158
1863.236, 64.604, -147.229
1890.338, 64.643, -146.032
1917.833, 64.704, -144.533
1945.729, 64.832, -142.986
1974.030, 65.005, -141.752
2002.743, 65.184, -140.657
2031.873, 65.352, -139.558
2061.428, 65.542, -138.579
2091.412, 65.773, -137.730
2121.832, 65.973, -136.888
2152.695, 66.194, -136.243
2184.007, 66.426, -135.633
2215.774, 66.656, -135.117
2248.003, 66.885, -134.645
2280.701, 67.121, -134.285
2313.874, 67.365, -134.014
2347.530, 67.604, -133.788
2381.676, 67.853, -133.644
2416.318, 68.090, -133.600
2451.464, 68.331, -133.599
2487.122, 68.565, -133.632
2523.298, 68.809, -133.522
2560.000, 69.096, -133.390
2597.236, 69.429, -133.621
2635.014, 69.755, -134.260
2673.341, 70.062, -135.225
2712.226, 70.328, -136.471
2751.676, 70.541, -137.778
2791.700, 70.732, -138.948
2832.306, 70.923, -140.168
2873.503, 71.071, -141.616
2915.299, 71.144, -142.800
2957.703, 71.241, -143.320
3000.724, 71.440, -143.811
3044.370, 71.683, -144.892
3088.652, 71.878, -146.548
3133.577, 71.968, -148.338
3179.156, 71.976, -149.355
3225.398, 72.136, -149.592
3272.312, 72.421, -150.834
3319.909, 72.642, -152.992
3368.198, 72.775, -155.469
3417.190, 72.829, -158.035
3466.894, 72.808, -160.633
3517.321, 72.707, -163.159
3568.482, 72.523, -165.492
3620.387, 72.243, -167.476
3673.046, 71.877, -168.767
3726.472, 71.467, -169.083
3780.675, 71.057, -168.338
3835.666, 70.670, -166.228
3891.457, 70.450, -162.206
3948.060, 70.675, -156.930
4005.486, 71.466, -153.056
4063.747, 72.481, -152.863
4122.855, 73.344, -155.690
4182.824, 73.944, -160.187
4243.664, 74.232, -165.476
4305.390, 74.221, -170.361
4368.013, 74.050, -174.228
4431.547, 73.793, -177.045
4496.005, 73.546, -178.668
4561.401, 73.421, -179.494
4627.749, 73.473, 179.467
4695.061, 73.555, 177.310
4763.352, 73.537, 174.856
4832.637, 73.521, 172.180
4902.929, 73.407, 168.912
4974.244, 73.148, 165.803
5046.596, 72.786, 163.292
5120.000, 72.406, 161.600
5194.472, 72.063, 160.358
5270.027, 71.739, 159.322
5346.682, 71.416, 158.580
5424.451, 71.141, 158.235
5503.352, 70.936, 157.953
5583.399, 70.793, 157.559
5664.612, 70.710, 156.798
5747.006, 70.633, 155.438
5830.598, 70.545, 153.605
5915.406, 70.409, 150.926
6001.447, 70.118, 147.749
6088.740, 69.661, 144.445
6177.303, 68.939, 141.432
6267.154, 68.039, 140.774
6358.312, 67.361, 141.765
6450.796, 66.801, 142.341
6544.625, 66.179, 142.935
6639.818, 65.523, 144.302
6736.397, 64.908, 146.489
6834.380, 64.373, 149.344
6933.789, 63.942, 152.664
7034.643, 63.627, 156.214
7136.964, 63.415, 159.718
7240.773, 63.282, 163.201
7346.093, 63.248, 166.713
7452.944, 63.346, 169.872
7561.350, 63.505, 172.174
7671.332, 63.607, 174.130
7782.915, 63.722, 176.856
7896.120, 64.140, 179.878
8010.971, 64.815, -179.185
8127.493, 65.499, 179.433
8245.711, 66.075, 175.361
8365.647, 66.162, 169.532
8487.328, 65.951, 164.846
8610.779, 65.612, 159.786
8736.026, 64.996, 153.436
8863.095, 63.196, 150.953
8992.011, 62.000, 157.057
9122.803, 61.825, 161.921
9255.497, 61.682, 163.389
9390.121, 61.356, 164.226
9526.704, 60.941, 165.121
9665.273, 60.364, 166.370
9805.857, 59.772, 169.424
9948.487, 59.296, 172.797
10093.191, 58.778, 177.198
10240.000, 58.415, -176.738
10388.944, 58.270, -169.703
10540.055, 58.576, -161.023
10693.363, 59.553, -154.033
10848.902, 60.884, -151.265
11006.703, 62.129, -152.906
11166.799, 63.000, -157.617
11329.224, 63.370, -163.065
11494.012, 63.468, -168.460
11661.195, 63.212, -173.108
11830.812, 62.842, -175.731
12002.895, 62.599, -177.554
12177.480, 62.352, -179.742
12354.606, 62.059, 178.609
12534.309, 61.904, 176.858
12716.624, 61.686, 173.354
12901.592, 61.177, 169.581
13089.250, 60.414, 165.988
13279.637, 59.223, 164.853
13472.794, 58.250, 168.178
13668.760, 57.864, 172.484
13867.577, 57.944, 175.096
14069.285, 58.080, 173.948
14273.928, 57.727, 171.660
14481.547, 57.263, 172.599
14692.186, 57.540, 173.862
14905.889, 58.095, 169.491
15122.700, 58.232, 160.673
15342.664, 57.753, 148.949
15565.829, 56.339, 136.322
15792.239, 54.148, 127.331
16021.942, 51.835, 122.409
16254.986, 49.569, 118.292
16491.422, 46.982, 113.198
16731.295, 43.942, 109.936
16974.656, 41.417, 111.768
17221.559, 43.097, 101.978
17472.053, 46.939, 43.188
17726.189, 48.035, -14.637
17984.021, 49.018, -48.506
18245.605, 49.480, -73.261
18510.994, 48.968, -89.937
18780.242, 48.235, -100.081
19053.408, 47.413, -107.055
19330.547, 46.314, -113.447
19611.715, 44.311, -116.004
19896.975, 42.322, -109.294
