* Measurement data measured by REW V5.19
* Source: ASIO MOTU M Series, In 1
* Format: 1M Log Swept Sine, 1 sweep at -3.0 dBFS  With no timing reference
* Dated: 13 Oct, 2020 5:02:18 PM
* REW Settings:
*  C-weighting compensation: Off
*  Target level: 75.0 dB
* Note: ; 
* Measurement: Oct 13 17:02:18
* Smoothing: None
* Frequency Step: 1/48 octave
* Start Frequency: 10.1 Hz
*
* Freq(Hz), SPL(dB), Phase(degrees)
10.145, 48.134, -51.021
10.293, 48.231, -51.576
10.443, 48.331, -52.151
10.595, 48.451, -52.588
10.749, 48.582, -53.009
10.905, 48.725, -53.460
11.064, 48.876, -53.936
11.225, 49.029, -54.473
11.388, 49.184, -55.057
11.554, 49.330, -55.671
11.722, 49.470, -56.305
11.892, 49.599, -56.893
12.065, 49.720, -57.430
12.241, 49.839, -57.843
12.419, 49.962, -58.139
12.599, 50.103, -58.301
12.782, 50.267, -58.381
12.968, 50.469, -58.439
13.157, 50.705, -58.594
13.348, 50.978, -58.931
13.543, 51.266, -59.569
13.740, 51.565, -60.549
13.939, 51.840, -61.882
14.142, 52.083, -63.516
14.348, 52.270, -65.383
14.557, 52.393, -67.302
14.768, 52.447, -69.187
14.983, 52.437, -70.808
15.201, 52.379, -72.048
15.422, 52.288, -72.784
15.646, 52.207, -72.945
15.874, 52.163, -72.614
16.105, 52.184, -71.874
16.339, 52.290, -71.025
16.577, 52.470, -70.266
16.818, 52.713, -69.769
17.063, 52.988, -69.664
17.311, 53.267, -69.935
17.563, 53.533, -70.539
17.818, 53.769, -71.406
18.077, 53.964, -72.431
18.340, 54.116, -73.515
18.607, 54.223, -74.561
18.877, 54.288, -75.466
19.152, 54.321, -76.126
19.431, 54.341, -76.457
19.713, 54.371, -76.447
20.000, 54.435, -76.162
20.291, 54.551, -75.741
20.586, 54.724, -75.370
20.885, 54.944, -75.234
21.189, 55.189, -75.455
21.497, 55.431, -76.063
21.810, 55.646, -77.007
22.127, 55.816, -78.172
22.449, 55.933, -79.407
22.776, 55.998, -80.540
23.107, 56.026, -81.412
23.443, 56.046, -81.929
23.784, 56.090, -82.117
24.130, 56.184, -82.131
24.481, 56.332, -82.195
24.837, 56.515, -82.486
25.198, 56.705, -83.041
25.565, 56.882, -83.775
25.937, 57.043, -84.566
26.314, 57.195, -85.355
26.697, 57.346, -86.168
27.085, 57.490, -87.050
27.479, 57.611, -87.963
27.879, 57.705, -88.766
28.284, 57.790, -89.313
28.696, 57.899, -89.604
29.113, 58.059, -89.839
29.537, 58.261, -90.309
29.966, 58.465, -91.161
30.402, 58.631, -92.300
30.844, 58.743, -93.476
31.293, 58.819, -94.470
31.748, 58.891, -95.241
32.210, 58.981, -95.927
32.678, 59.083, -96.701
33.154, 59.175, -97.602
33.636, 59.240, -98.523
34.125, 59.284, -99.320
34.621, 59.324, -99.937
35.125, 59.377, -100.403
35.636, 59.453, -100.789
36.154, 59.557, -101.236
36.680, 59.666, -101.942
37.214, 59.715, -102.896
37.755, 59.658, -103.488
38.304, 59.574, -102.921
38.861, 59.671, -101.450
39.427, 59.980, -100.724
40.000, 60.255, -101.591
40.582, 60.290, -102.636
41.172, 60.253, -102.233
41.771, 60.430, -101.197
42.379, 60.731, -101.680
42.995, 60.813, -103.251
43.620, 60.703, -103.640
44.255, 60.755, -102.678
44.898, 61.046, -102.586
45.552, 61.297, -104.114
46.214, 61.364, -106.000
46.886, 61.324, -107.066
47.568, 61.377, -106.957
48.260, 61.711, -107.078
48.962, 62.100, -109.546
49.674, 62.102, -113.180
50.397, 61.790, -114.616
51.130, 61.657, -113.857
51.874, 61.684, -113.487
52.628, 61.658, -112.848
53.394, 61.778, -111.823
54.170, 61.897, -112.064
54.958, 61.802, -111.760
55.758, 61.876, -109.999
56.569, 62.160, -109.597
57.391, 62.278, -110.136
58.226, 62.373, -109.678
59.073, 62.651, -109.513
59.932, 62.877, -110.393
60.804, 63.019, -110.725
61.688, 63.288, -110.972
62.586, 63.506, -112.111
63.496, 63.629, -112.561
64.420, 63.870, -113.073
65.357, 63.984, -114.238
66.307, 64.070, -114.162
67.272, 64.352, -114.692
68.250, 64.468, -116.352
69.243, 64.469, -116.913
70.250, 64.624, -117.054
71.272, 64.841, -118.151
72.309, 64.923, -119.674
73.360, 64.973, -120.360
74.427, 65.124, -121.124
75.510, 65.235, -122.200
76.608, 65.344, -122.957
77.723, 65.501, -123.938
78.853, 65.587, -125.109
80.000, 65.689, -125.811
81.164, 65.801, -126.821
82.344, 65.911, -127.774
83.542, 65.946, -129.007
84.757, 66.010, -129.421
85.990, 66.124, -130.489
87.241, 66.219, -131.496
88.510, 66.286, -132.634
89.797, 66.376, -133.778
91.103, 66.381, -134.513
92.428, 66.540, -135.541
93.773, 66.540, -136.914
95.137, 66.584, -138.128
96.520, 66.636, -139.339
97.924, 66.660, -140.952
99.349, 66.721, -142.202
100.794, 66.707, -143.793
102.260, 66.714, -145.134
103.747, 66.648, -146.869
105.256, 66.465, -148.325
106.787, 66.461, -149.069
108.340, 66.288, -151.010
109.916, 66.131, -151.910
111.515, 65.870, -152.290
113.137, 65.675, -152.459
114.783, 65.425, -153.240
116.452, 65.238, -152.820
118.146, 64.933, -152.163
119.865, 64.857, -151.429
121.608, 64.708, -149.668
123.377, 64.748, -148.367
125.171, 64.703, -147.424
126.992, 64.824, -146.483
128.839, 64.920, -145.732
130.713, 65.054, -145.560
132.615, 65.167, -144.664
134.543, 65.258, -144.555
136.500, 65.388, -144.290
138.486, 65.583, -144.369
140.500, 65.676, -144.187
142.544, 65.844, -144.081
144.617, 65.966, -144.268
146.721, 66.151, -144.600
148.855, 66.303, -145.151
151.020, 66.506, -145.756
153.217, 66.671, -146.538
155.445, 66.812, -147.825
157.706, 66.962, -148.748
160.000, 67.080, -150.243
162.327, 67.139, -151.738
164.688, 67.169, -153.316
167.084, 67.171, -155.012
169.514, 67.107, -156.633
171.980, 67.057, -158.013
174.481, 66.922, -159.236
177.019, 66.825, -159.925
179.594, 66.676, -160.937
182.206, 66.538, -161.613
184.856, 66.403, -162.120
187.545, 66.262, -162.749
190.273, 66.022, -162.959
193.041, 65.912, -162.327
195.849, 65.815, -162.021
198.697, 65.765, -162.097
201.587, 65.693, -162.064
204.520, 65.584, -162.128
207.494, 65.490, -162.117
210.512, 65.384, -161.743
213.574, 65.259, -161.038
216.681, 65.203, -160.405
219.833, 65.201, -159.809
223.030, 65.191, -158.935
226.274, 65.163, -158.579
229.565, 65.193, -158.062
232.905, 65.180, -158.157
236.292, 65.235, -157.325
239.729, 65.224, -156.988
243.216, 65.241, -156.453
246.754, 65.264, -155.810
250.343, 65.300, -155.471
253.984, 65.387, -155.160
257.678, 65.406, -154.881
261.426, 65.483, -154.806
265.229, 65.573, -154.703
269.087, 65.612, -154.782
273.001, 65.617, -154.926
276.972, 65.723, -155.282
281.000, 65.623, -154.997
285.088, 65.594, -154.865
289.234, 65.530, -154.621
293.441, 65.488, -153.887
297.710, 65.436, -153.159
302.040, 65.460, -152.177
306.433, 65.511, -150.949
310.890, 65.621, -149.665
315.412, 65.804, -148.563
320.000, 66.040, -147.764
324.655, 66.294, -147.501
329.377, 66.534, -147.505
334.168, 66.762, -148.085
339.028, 66.930, -148.840
343.959, 67.076, -149.618
348.962, 67.150, -150.360
354.038, 67.233, -151.108
359.188, 67.282, -151.791
364.412, 67.316, -152.222
369.713, 67.357, -152.697
375.090, 67.396, -153.120
380.546, 67.425, -153.484
386.081, 67.455, -153.841
391.697, 67.492, -154.168
397.395, 67.518, -154.468
403.175, 67.554, -154.769
409.039, 67.584, -155.161
414.989, 67.599, -155.508
421.025, 67.597, -155.777
427.149, 67.617, -155.890
433.362, 67.634, -156.114
439.665, 67.648, -156.294
446.060, 67.662, -156.470
452.548, 67.678, -156.588
459.131, 67.697, -156.639
465.809, 67.724, -156.682
472.584, 67.757, -156.737
479.458, 67.798, -156.888
486.432, 67.838, -157.053
493.507, 67.877, -157.239
500.686, 67.911, -157.479
507.968, 67.936, -157.709
515.357, 67.957, -157.916
522.853, 67.980, -158.101
530.458, 67.999, -158.296
538.174, 68.016, -158.482
546.002, 68.031, -158.652
553.943, 68.052, -158.784
562.001, 68.069, -158.950
570.175, 68.086, -159.154
578.469, 68.099, -159.322
586.883, 68.108, -159.466
595.419, 68.117, -159.601
604.080, 68.127, -159.721
612.866, 68.131, -159.806
621.780, 68.141, -159.775
630.824, 68.165, -159.834
640.000, 68.194, -159.930
649.309, 68.218, -160.038
658.753, 68.241, -160.196
668.335, 68.259, -160.351
678.056, 68.275, -160.469
687.919, 68.295, -160.627
697.925, 68.318, -160.846
708.076, 68.333, -161.080
718.376, 68.341, -161.341
728.825, 68.339, -161.694
739.426, 68.317, -162.071
750.181, 68.276, -162.479
761.093, 68.197, -162.819
772.163, 68.081, -162.907
783.394, 67.940, -162.599
794.789, 67.828, -161.769
806.349, 67.784, -160.602
818.078, 67.823, -159.435
829.977, 67.920, -158.547
842.050, 68.038, -158.022
854.297, 68.141, -157.730
866.724, 68.239, -157.469
879.330, 68.345, -157.295
892.120, 68.441, -157.273
905.097, 68.530, -157.315
918.262, 68.611, -157.388
931.618, 68.686, -157.487
945.169, 68.753, -157.617
958.917, 68.819, -157.771
972.864, 68.877, -157.916
987.015, 68.930, -158.072
1001.371, 68.980, -158.208
1015.937, 69.031, -158.344
1030.714, 69.080, -158.490
1045.706, 69.128, -158.643
1060.916, 69.169, -158.799
1076.347, 69.215, -158.962
1092.003, 69.253, -159.103
1107.887, 69.295, -159.254
1124.001, 69.331, -159.411
1140.350, 69.369, -159.550
1156.937, 69.402, -159.706
1173.765, 69.434, -159.846
1190.838, 69.467, -159.917
1208.159, 69.502, -159.978
1225.732, 69.543, -160.073
1243.561, 69.587, -160.147
1261.649, 69.632, -160.233
1280.000, 69.683, -160.347
1298.618, 69.735, -160.480
1317.507, 69.788, -160.642
1336.670, 69.840, -160.864
1356.113, 69.890, -161.083
1375.838, 69.937, -161.328
1395.850, 69.987, -161.609
1416.153, 70.033, -161.899
1436.751, 70.076, -162.228
1457.649, 70.114, -162.612
1478.851, 70.143, -162.971
1500.362, 70.169, -163.357
1522.185, 70.189, -163.761
1544.326, 70.201, -164.169
1566.789, 70.202, -164.581
1589.578, 70.190, -164.956
1612.699, 70.168, -165.214
1636.156, 70.134, -165.386
1659.955, 70.105, -165.301
1684.099, 70.117, -164.938
1708.595, 70.224, -164.638
1733.447, 70.365, -165.181
1758.661, 70.412, -166.187
1784.241, 70.382, -166.992
1810.193, 70.328, -167.478
1836.523, 70.287, -167.762
1863.236, 70.262, -167.998
1890.338, 70.240, -168.269
1917.833, 70.210, -168.577
1945.729, 70.166, -168.857
1974.030, 70.115, -169.097
2002.743, 70.056, -169.230
2031.873, 69.993, -169.285
2061.428, 69.923, -169.267
2091.412, 69.853, -168.980
2121.832, 69.831, -168.647
2152.695, 69.810, -168.448
2184.007, 69.783, -168.225
2215.774, 69.757, -167.937
2248.003, 69.740, -167.536
2280.701, 69.738, -167.123
2313.874, 69.742, -166.722
2347.530, 69.757, -166.250
2381.676, 69.780, -165.738
2416.318, 69.834, -165.172
2451.464, 69.916, -164.702
2487.122, 70.015, -164.388
2523.298, 70.115, -164.196
2560.000, 70.224, -164.139
2597.236, 70.331, -164.362
2635.014, 70.406, -164.507
2673.341, 70.498, -164.740
2712.226, 70.563, -165.065
2751.676, 70.629, -165.315
2791.700, 70.696, -165.630
2832.306, 70.761, -165.981
2873.503, 70.823, -166.377
2915.299, 70.899, -166.879
2957.703, 70.959, -167.625
3000.724, 70.980, -168.502
3044.370, 70.962, -169.362
3088.652, 70.916, -170.220
3133.577, 70.831, -170.969
3179.156, 70.694, -171.511
3225.398, 70.522, -171.581
3272.312, 70.356, -170.949
3319.909, 70.284, -169.707
3368.198, 70.361, -168.400
3417.190, 70.543, -167.747
3466.894, 70.739, -167.841
3517.321, 70.903, -168.521
3568.482, 71.012, -169.511
3620.387, 71.058, -170.634
3673.046, 71.051, -171.743
3726.472, 71.011, -172.752
3780.675, 70.946, -173.664
3835.666, 70.859, -174.474
3891.457, 70.758, -175.197
3948.060, 70.637, -175.850
4005.486, 70.498, -176.387
4063.747, 70.336, -176.762
4122.855, 70.158, -176.957
4182.824, 69.965, -176.926
4243.664, 69.771, -176.616
4305.390, 69.586, -175.992
4368.013, 69.420, -175.077
4431.547, 69.291, -173.890
4496.005, 69.209, -172.528
4561.401, 69.181, -171.035
4627.749, 69.212, -169.520
4695.061, 69.303, -168.136
4763.352, 69.440, -166.982
4832.637, 69.612, -166.077
4902.929, 69.807, -165.486
4974.244, 70.014, -165.201
5046.596, 70.217, -165.256
5120.000, 70.389, -165.492
5194.472, 70.561, -165.644
5270.027, 70.779, -166.084
5346.682, 70.973, -166.967
5424.451, 71.144, -168.054
5503.352, 71.291, -169.425
5583.399, 71.398, -171.082
5664.612, 71.442, -172.887
5747.006, 71.428, -174.679
5830.598, 71.367, -176.417
5915.406, 71.269, -178.051
6001.447, 71.141, -179.607
6088.740, 70.976, 178.823
6177.303, 70.754, 177.330
6267.154, 70.468, 176.057
6358.312, 70.125, 175.167
6450.796, 69.737, 174.841
6544.625, 69.335, 175.250
6639.818, 68.971, 176.417
6736.397, 68.690, 178.177
6834.380, 68.509, -179.751
6933.789, 68.421, -177.544
7034.643, 68.457, -175.315
7136.964, 68.594, -173.498
7240.773, 68.798, -172.237
7346.093, 69.012, -171.449
7452.944, 69.304, -170.683
7561.350, 69.667, -171.655
7671.332, 69.770, -173.257
7782.915, 69.742, -173.814
7896.120, 69.796, -173.023
8010.971, 70.137, -171.908
8127.493, 70.739, -172.375
8245.711, 71.359, -175.268
8365.647, 71.794, 179.930
8487.328, 71.952, 174.228
8610.779, 71.945, 168.898
8736.026, 71.604, 161.341
8863.095, 70.894, 156.451
8992.011, 70.214, 152.182
9122.803, 68.998, 148.176
9255.497, 67.371, 150.238
9390.121, 66.646, 160.758
9526.704, 67.718, 168.498
9665.273, 69.134, 164.159
9805.857, 69.254, 155.213
9948.487, 68.889, 149.766
10093.191, 68.529, 143.306
10240.000, 67.784, 137.940
10388.944, 66.906, 132.319
10540.055, 65.730, 128.909
10693.363, 64.456, 126.281
10848.902, 63.129, 127.734
11006.703, 62.419, 129.409
11166.799, 61.861, 128.713
11329.224, 60.864, 125.850
11494.012, 59.549, 125.162
11661.195, 58.238, 125.266
11830.812, 56.759, 126.457
12002.895, 55.199, 128.271
12177.480, 53.326, 130.755
12354.606, 50.750, 134.138
12534.309, 46.349, 149.899
12716.624, 45.147, -156.405
12901.592, 50.115, -131.814
13089.250, 53.887, -130.071
13279.637, 56.162, -135.014
13472.794, 57.772, -141.174
13668.760, 58.726, -151.282
13867.577, 58.697, -159.737
14069.285, 58.535, -165.195
14273.928, 58.365, -172.052
14481.547, 57.543, -179.327
14692.186, 56.221, 176.873
14905.889, 55.053, 176.780
15122.700, 54.157, 177.159
15342.664, 53.138, 175.613
15565.829, 51.401, 174.178
15792.239, 48.754, -179.333
16021.942, 47.249, -157.243
16254.986, 48.981, -137.934
16491.422, 51.468, -136.674
16731.295, 52.594, -145.561
16974.656, 52.349, -158.101
17221.559, 50.096, -164.273
17472.053, 47.865, -153.985
17726.189, 48.150, -139.099
17984.021, 49.460, -137.669
18245.605, 49.595, -139.884
18510.994, 49.782, -141.536
18780.242, 49.993, -146.397
19053.408, 49.285, -154.876
19330.547, 48.086, -160.166
19611.715, 46.236, -162.829
19896.975, 44.358, -158.431
