* Measurement data measured by REW V5.19
* Source: ASIO MOTU M Series, In 1
* Format: 1M Log Swept Sine, 1 sweep at -10.0 dBFS  With no timing reference
* Dated: 30 Apr, 2021 8:52:30 PM
* REW Settings:
*  C-weighting compensation: Off
*  Target level: 75.0 dB
* Note: ; 
* Measurement: Apr 30 20:52:30
* Smoothing: 1/48 octave
* Frequency Step: 1/48 octave
* Start Frequency: 10.1 Hz
*
* Freq(Hz), SPL(dB), Phase(degrees)
10.145, 59.559, 101.327
10.293, 59.626, 100.425
10.443, 59.694, 99.243
10.595, 59.786, 97.721
10.749, 59.873, 96.190
10.905, 59.922, 95.145
11.064, 59.954, 94.322
11.225, 60.003, 93.433
11.388, 60.060, 92.561
11.554, 60.125, 91.780
11.722, 60.198, 91.070
11.892, 60.280, 90.356
12.065, 60.372, 89.637
12.241, 60.468, 88.841
12.419, 60.569, 87.990
12.599, 60.663, 87.124
12.782, 60.752, 86.241
12.968, 60.835, 85.335
13.157, 60.913, 84.451
13.348, 60.985, 83.623
13.543, 61.059, 82.840
13.740, 61.136, 82.103
13.939, 61.220, 81.386
14.142, 61.312, 80.672
14.348, 61.412, 79.926
14.557, 61.514, 79.124
14.768, 61.615, 78.256
14.983, 61.709, 77.333
15.201, 61.793, 76.381
15.422, 61.864, 75.422
15.646, 61.924, 74.511
15.874, 61.975, 73.664
16.105, 62.023, 72.899
16.339, 62.074, 72.210
16.577, 62.131, 71.571
16.818, 62.195, 70.956
17.063, 62.266, 70.329
17.311, 62.340, 69.674
17.563, 62.414, 68.990
17.818, 62.484, 68.286
18.077, 62.549, 67.582
18.340, 62.611, 66.890
18.607, 62.672, 66.212
18.877, 62.734, 65.541
19.152, 62.796, 64.863
19.431, 62.856, 64.164
19.713, 62.912, 63.449
20.000, 62.963, 62.733
20.291, 63.007, 62.036
20.586, 63.049, 61.376
20.885, 63.092, 60.757
21.189, 63.140, 60.162
21.497, 63.194, 59.560
21.810, 63.251, 58.923
22.127, 63.309, 58.244
22.449, 63.362, 57.534
22.776, 63.408, 56.821
23.107, 63.450, 56.134
23.443, 63.491, 55.486
23.784, 63.535, 54.870
24.130, 63.583, 54.264
24.481, 63.633, 53.650
24.837, 63.684, 53.028
25.198, 63.732, 52.414
25.565, 63.779, 51.826
25.937, 63.829, 51.265
26.314, 63.883, 50.707
26.697, 63.939, 50.121
27.085, 63.992, 49.494
27.479, 64.035, 48.853
27.879, 64.066, 48.251
28.284, 64.091, 47.729
28.696, 64.120, 47.283
29.113, 64.158, 46.862
29.537, 64.203, 46.410
29.966, 64.247, 45.909
30.402, 64.285, 45.380
30.844, 64.318, 44.853
31.293, 64.351, 44.327
31.748, 64.382, 43.786
32.210, 64.408, 43.231
32.678, 64.429, 42.704
33.154, 64.450, 42.233
33.636, 64.481, 41.796
34.125, 64.523, 41.327
34.621, 64.566, 40.796
35.125, 64.603, 40.236
35.636, 64.634, 39.704
36.154, 64.667, 39.209
36.680, 64.702, 38.720
37.214, 64.734, 38.230
37.755, 64.763, 37.779
38.304, 64.796, 37.369
38.861, 64.836, 36.924
39.427, 64.870, 36.403
40.000, 64.886, 35.886
40.582, 64.896, 35.483
41.172, 64.922, 35.126
41.771, 64.958, 34.649
42.379, 64.974, 34.057
42.995, 64.965, 33.574
43.620, 64.963, 33.318
44.255, 64.998, 33.118
44.898, 65.054, 32.770
45.552, 65.102, 32.284
46.214, 65.135, 31.794
46.886, 65.160, 31.380
47.568, 65.189, 31.039
48.260, 65.227, 30.691
48.962, 65.262, 30.247
49.674, 65.274, 29.772
50.397, 65.270, 29.429
51.130, 65.282, 29.172
51.874, 65.303, 28.807
52.628, 65.309, 28.371
53.394, 65.310, 28.039
54.170, 65.329, 27.707
54.958, 65.346, 27.281
55.758, 65.356, 26.950
56.569, 65.390, 26.648
57.391, 65.421, 26.170
58.226, 65.424, 25.770
59.073, 65.443, 25.512
59.932, 65.471, 25.100
60.804, 65.475, 24.667
61.688, 65.481, 24.320
62.586, 65.492, 23.932
63.496, 65.499, 23.566
64.420, 65.514, 23.240
65.357, 65.537, 22.888
66.307, 65.552, 22.493
67.272, 65.557, 22.155
68.250, 65.559, 21.819
69.243, 65.554, 21.521
70.250, 65.554, 21.040
71.272, 65.481, 20.573
72.309, 65.452, 20.750
73.360, 65.518, 20.379
74.427, 65.506, 19.662
75.510, 65.479, 19.255
76.608, 65.448, 18.915
77.723, 65.415, 18.824
78.853, 65.401, 18.790
80.000, 65.383, 18.761
81.164, 65.375, 18.740
82.344, 65.353, 18.644
83.542, 65.347, 18.722
84.757, 65.356, 18.566
85.990, 65.343, 18.622
87.241, 65.380, 18.693
88.510, 65.396, 18.584
89.797, 65.401, 18.652
91.103, 65.425, 18.785
92.428, 65.468, 18.823
93.773, 65.508, 18.761
95.137, 65.551, 18.646
96.520, 65.586, 18.594
97.924, 65.652, 18.480
99.349, 65.695, 18.219
100.794, 65.742, 18.016
102.260, 65.791, 17.650
103.747, 65.828, 17.334
105.256, 65.865, 16.931
106.787, 65.897, 16.598
108.340, 65.930, 16.181
109.916, 65.944, 15.641
111.515, 65.946, 15.185
113.137, 65.945, 14.654
114.783, 65.914, 14.121
116.452, 65.837, 13.876
118.146, 65.766, 13.979
119.865, 65.713, 14.357
121.608, 65.748, 14.618
123.377, 65.773, 14.496
125.171, 65.806, 14.465
126.992, 65.858, 14.323
128.839, 65.898, 14.161
130.713, 65.934, 13.937
132.615, 65.961, 13.689
134.543, 65.987, 13.356
136.500, 66.004, 13.073
138.486, 66.022, 12.766
140.500, 66.023, 12.530
142.544, 66.009, 12.313
144.617, 65.995, 11.957
146.721, 65.974, 11.796
148.855, 65.998, 11.663
151.020, 66.011, 11.601
153.217, 66.019, 11.516
155.445, 66.018, 11.237
157.706, 66.028, 10.989
160.000, 66.077, 10.804
162.327, 66.026, 10.331
164.688, 66.051, 10.485
167.084, 66.030, 10.254
169.514, 66.057, 10.198
171.980, 66.050, 9.900
174.481, 66.042, 9.729
177.019, 66.055, 9.515
179.594, 66.045, 9.327
182.206, 66.039, 8.977
184.856, 66.039, 8.744
187.545, 66.073, 8.674
190.273, 66.023, 8.435
193.041, 65.952, 8.296
195.849, 65.940, 8.095
198.697, 65.910, 8.170
201.587, 65.913, 8.434
204.520, 65.919, 8.402
207.494, 65.934, 8.358
210.512, 65.942, 8.324
213.574, 65.948, 8.265
216.681, 65.955, 8.082
219.833, 65.955, 7.958
223.030, 65.968, 7.949
226.274, 65.984, 7.851
229.565, 66.004, 7.830
232.905, 66.005, 7.605
236.292, 66.001, 7.407
239.729, 66.001, 7.336
243.216, 66.001, 7.314
246.754, 65.998, 6.898
250.343, 65.984, 6.515
253.984, 65.970, 6.476
257.678, 65.931, 6.299
261.426, 65.937, 6.120
265.229, 65.927, 5.960
269.087, 65.902, 5.810
273.001, 65.883, 5.777
276.972, 65.864, 5.705
281.000, 65.842, 5.666
285.088, 65.830, 5.577
289.234, 65.820, 5.522
293.441, 65.784, 5.559
297.710, 65.760, 5.499
302.040, 65.780, 5.479
306.433, 65.787, 5.407
310.890, 65.784, 5.396
315.412, 65.748, 5.414
320.000, 65.717, 5.461
324.655, 65.727, 5.445
329.377, 65.707, 5.360
334.168, 65.684, 5.371
339.028, 65.669, 5.245
343.959, 65.657, 5.167
348.962, 65.636, 4.965
354.038, 65.606, 4.870
359.188, 65.604, 4.922
364.412, 65.569, 5.005
369.713, 65.539, 5.005
375.090, 65.500, 5.021
380.546, 65.471, 5.064
386.081, 65.447, 5.164
391.697, 65.421, 5.261
397.395, 65.383, 5.367
403.175, 65.369, 5.413
409.039, 65.339, 5.594
414.989, 65.323, 5.665
421.025, 65.311, 5.750
427.149, 65.296, 5.905
433.362, 65.262, 6.009
439.665, 65.238, 6.169
446.060, 65.220, 6.343
452.548, 65.214, 6.488
459.131, 65.206, 6.722
465.809, 65.196, 6.907
472.584, 65.191, 7.048
479.458, 65.169, 7.109
486.432, 65.155, 7.268
493.507, 65.153, 7.511
500.686, 65.142, 7.619
507.968, 65.145, 7.755
515.357, 65.124, 7.932
522.853, 65.093, 8.073
530.458, 65.070, 8.226
538.174, 65.054, 8.506
546.002, 65.054, 8.767
553.943, 65.044, 8.938
562.001, 65.020, 9.119
570.175, 64.991, 9.452
578.469, 64.998, 9.869
586.883, 65.003, 10.091
595.419, 65.001, 10.412
604.080, 65.009, 10.677
612.866, 65.020, 10.861
621.780, 64.999, 11.130
630.824, 65.008, 11.496
640.000, 65.025, 11.708
649.309, 65.025, 11.782
658.753, 65.009, 12.029
668.335, 65.014, 12.372
678.056, 65.016, 12.661
687.919, 65.011, 13.088
697.925, 65.020, 13.390
708.076, 65.035, 13.619
718.376, 65.032, 13.992
728.825, 65.058, 14.290
739.426, 65.087, 14.505
750.181, 65.097, 14.646
761.093, 65.100, 15.074
772.163, 65.122, 15.212
783.394, 65.101, 15.370
794.789, 65.089, 15.819
806.349, 65.102, 16.229
818.078, 65.104, 16.539
829.977, 65.110, 16.959
842.050, 65.138, 17.414
854.297, 65.168, 17.741
866.724, 65.177, 18.051
879.330, 65.192, 18.411
892.120, 65.202, 18.870
905.097, 65.223, 19.386
918.262, 65.246, 19.854
931.618, 65.300, 20.398
945.169, 65.341, 20.760
958.917, 65.409, 21.159
972.864, 65.457, 21.310
987.015, 65.490, 21.605
1001.371, 65.512, 21.975
1015.937, 65.551, 22.285
1030.714, 65.576, 22.632
1045.706, 65.640, 23.190
1060.916, 65.690, 23.391
1076.347, 65.712, 23.642
1092.003, 65.772, 24.130
1107.887, 65.814, 24.239
1124.001, 65.859, 24.731
1140.350, 65.926, 25.085
1156.937, 65.979, 25.334
1173.765, 66.003, 25.640
1190.838, 66.056, 26.249
1208.159, 66.149, 26.593
1225.732, 66.215, 26.793
1243.561, 66.277, 27.131
1261.649, 66.343, 27.354
1280.000, 66.405, 27.683
1298.618, 66.475, 27.901
1317.507, 66.526, 28.168
1336.670, 66.592, 28.442
1356.113, 66.657, 28.806
1375.838, 66.736, 29.088
1395.850, 66.805, 29.373
1416.153, 66.893, 29.667
1436.751, 66.974, 29.723
1457.649, 67.012, 29.884
1478.851, 67.081, 30.500
1500.362, 67.189, 30.803
1522.185, 67.291, 30.996
1544.326, 67.393, 31.171
1566.789, 67.503, 31.263
1589.578, 67.587, 31.143
1612.699, 67.628, 31.194
1636.156, 67.685, 31.561
1659.955, 67.782, 31.839
1684.099, 67.883, 32.080
1708.595, 67.984, 32.149
1733.447, 68.080, 32.247
1758.661, 68.153, 32.275
1784.241, 68.227, 32.533
1810.193, 68.331, 32.896
1836.523, 68.471, 33.140
1863.236, 68.635, 32.919
1890.338, 68.696, 32.506
1917.833, 68.749, 32.627
1945.729, 68.801, 32.772
1974.030, 68.911, 33.322
2002.743, 69.063, 33.248
2031.873, 69.114, 33.367
2061.428, 69.244, 33.898
2091.412, 69.365, 34.193
2121.832, 69.580, 34.950
2152.695, 69.838, 34.749
2184.007, 70.053, 34.510
2215.774, 70.280, 34.071
2248.003, 70.491, 33.321
2280.701, 70.699, 32.532
2313.874, 70.884, 31.117
2347.530, 70.963, 29.676
2381.676, 70.972, 28.692
2416.318, 71.032, 28.121
2451.464, 71.093, 27.283
2487.122, 71.135, 26.653
2523.298, 71.196, 26.044
2560.000, 71.287, 25.392
2597.236, 71.315, 24.294
2635.014, 71.321, 23.646
2673.341, 71.301, 23.128
2712.226, 71.353, 22.879
2751.676, 71.377, 22.356
2791.700, 71.402, 22.036
2832.306, 71.455, 22.073
2873.503, 71.575, 21.694
2915.299, 71.683, 21.102
2957.703, 71.767, 20.258
3000.724, 71.829, 19.299
3044.370, 71.842, 18.359
3088.652, 71.817, 17.654
3133.577, 71.810, 17.291
3179.156, 71.813, 16.973
3225.398, 71.838, 16.899
3272.312, 71.928, 16.982
3319.909, 72.105, 16.852
3368.198, 72.335, 16.091
3417.190, 72.545, 14.569
3466.894, 72.675, 12.623
3517.321, 72.731, 10.659
3568.482, 72.772, 8.843
3620.387, 72.817, 6.864
3673.046, 72.835, 4.584
3726.472, 72.820, 2.089
3780.675, 72.756, -0.764
3835.666, 72.588, -3.839
3891.457, 72.316, -6.793
3948.060, 71.985, -9.498
4005.486, 71.607, -12.295
4063.747, 71.125, -15.113
4122.855, 70.551, -17.969
4182.824, 69.802, -21.095
4243.664, 68.743, -24.185
4305.390, 67.146, -25.155
4368.013, 65.244, -20.919
4431.547, 63.339, -10.099
4496.005, 62.562, 8.997
4561.401, 63.681, 24.919
4627.749, 65.287, 33.149
4695.061, 66.627, 36.425
4763.352, 67.881, 37.830
4832.637, 68.970, 36.602
4902.929, 69.764, 33.782
4974.244, 70.234, 30.702
5046.596, 70.587, 28.326
5120.000, 70.872, 25.734
5194.472, 71.031, 23.247
5270.027, 71.141, 21.090
5346.682, 71.210, 18.838
5424.451, 71.175, 16.538
5503.352, 71.051, 14.717
5583.399, 70.900, 13.285
5664.612, 70.692, 11.958
5747.006, 70.401, 11.193
5830.598, 70.056, 11.169
5915.406, 69.737, 12.049
6001.447, 69.435, 13.406
6088.740, 69.135, 15.656
6177.303, 68.916, 19.113
6267.154, 68.865, 23.334
6358.312, 69.004, 28.493
6450.796, 69.522, 34.184
6544.625, 70.454, 38.654
6639.818, 71.617, 40.856
6736.397, 72.845, 40.620
6834.380, 74.052, 38.275
6933.789, 75.206, 33.708
7034.643, 76.121, 26.576
7136.964, 76.651, 18.345
7240.773, 76.889, 10.108
7346.093, 76.893, 2.097
7452.944, 76.711, -5.455
7561.350, 76.390, -12.584
7671.332, 75.950, -19.401
7782.915, 75.380, -26.150
7896.120, 74.600, -32.715
8010.971, 73.573, -38.324
8127.493, 72.372, -42.203
8245.711, 71.138, -44.328
8365.647, 69.965, -45.334
8487.328, 68.838, -46.293
8610.779, 67.534, -47.756
8736.026, 65.723, -48.111
8863.095, 63.293, -43.137
8992.011, 60.680, -25.333
9122.803, 60.776, 1.066
9255.497, 63.013, 15.695
9390.121, 64.875, 18.430
9526.704, 65.963, 17.026
9665.273, 66.573, 15.355
9805.857, 66.940, 14.273
9948.487, 67.223, 13.826
10093.191, 67.507, 13.684
10240.000, 67.800, 13.524
10388.944, 68.139, 13.672
10540.055, 68.690, 13.584
10693.363, 69.429, 11.496
10848.902, 70.078, 6.362
11006.703, 70.363, -1.208
11166.799, 70.078, -9.779
11329.224, 69.206, -16.262
11494.012, 68.143, -19.654
11661.195, 67.050, -20.790
11830.812, 65.952, -19.777
12002.895, 65.002, -15.888
12177.480, 64.581, -10.811
12354.606, 64.494, -7.555
12534.309, 64.392, -5.567
12716.624, 64.290, -3.976
12901.592, 64.127, -3.041
13089.250, 63.855, -0.950
13279.637, 63.886, 1.900
13472.794, 64.081, 2.822
13668.760, 64.030, 2.684
13867.577, 63.975, 6.342
14069.285, 65.198, 8.182
14273.928, 66.132, -0.672
14481.547, 65.834, -13.712
14692.186, 64.277, -24.761
14905.889, 61.704, -29.905
15122.700, 58.331, -23.302
15342.664, 55.559, -1.977
15565.829, 55.719, 26.500
15792.239, 58.275, 44.674
16021.942, 60.924, 50.890
16254.986, 63.300, 50.630
16491.422, 65.499, 45.155
16731.295, 67.175, 33.460
16974.656, 67.863, 17.631
17221.559, 67.451, 2.029
17472.053, 66.196, -9.802
17726.189, 64.454, -16.100
17984.021, 62.788, -16.581
18245.605, 61.773, -14.851
18510.994, 61.080, -15.674
18780.242, 59.913, -17.529
19053.408, 58.329, -12.402
19330.547, 58.021, -3.632
19611.715, 58.422, 0.091
19896.975, 58.750, 0.646
