* Measurement data measured by REW V5.19
* Source: ASIO MOTU M Series, In 1
* Format: 1M Log Swept Sine, 2 sweeps at -10.0 dBFS  With no timing reference
* Dated: 16 Sep, 2020 4:22:48 PM
* REW Settings:
*  C-weighting compensation: Off
*  Target level: 75.0 dB
* Note: ; 
* Measurement: Sep 16 16:22:48
* Smoothing: None
* Frequency Step: 1/48 octave
* Start Frequency: 10.0 Hz
*
* Freq(Hz), SPL(dB), Phase(degrees)
10.145, 63.573, -80.834
10.293, 63.676, -81.956
10.443, 63.782, -83.019
10.595, 63.888, -84.100
10.749, 63.991, -85.206
10.905, 64.094, -86.331
11.064, 64.192, -87.457
11.225, 64.285, -88.588
11.388, 64.375, -89.699
11.554, 64.460, -90.785
11.722, 64.544, -91.842
11.892, 64.628, -92.857
12.065, 64.712, -93.842
12.241, 64.801, -94.803
12.419, 64.893, -95.749
12.599, 64.989, -96.708
12.782, 65.088, -97.680
12.968, 65.185, -98.688
13.157, 65.280, -99.724
13.348, 65.367, -100.784
13.543, 65.445, -101.850
13.740, 65.513, -102.894
13.939, 65.572, -103.894
14.142, 65.623, -104.822
14.348, 65.673, -105.672
14.557, 65.724, -106.433
14.768, 65.784, -107.145
14.983, 65.854, -107.821
15.201, 65.934, -108.525
15.422, 66.020, -109.278
15.646, 66.108, -110.113
15.874, 66.187, -111.019
16.105, 66.255, -111.977
16.339, 66.304, -112.934
16.577, 66.339, -113.832
16.818, 66.362, -114.637
17.063, 66.386, -115.314
17.311, 66.417, -115.898
17.563, 66.464, -116.420
17.818, 66.528, -116.971
18.077, 66.601, -117.607
18.340, 66.675, -118.348
18.607, 66.737, -119.188
18.877, 66.781, -120.040
19.152, 66.810, -120.833
19.431, 66.831, -121.511
19.713, 66.861, -122.055
20.000, 66.913, -122.552
20.291, 66.987, -123.121
20.586, 67.074, -123.857
20.885, 67.152, -124.807
21.189, 67.199, -125.910
21.497, 67.203, -126.988
21.810, 67.174, -127.862
22.127, 67.139, -128.427
22.449, 67.130, -128.711
22.776, 67.171, -128.889
23.107, 67.263, -129.216
23.443, 67.375, -129.879
23.784, 67.469, -130.873
24.130, 67.518, -132.013
24.481, 67.522, -133.060
24.837, 67.506, -133.850
25.198, 67.505, -134.390
25.565, 67.538, -134.844
25.937, 67.599, -135.406
26.314, 67.665, -136.159
26.697, 67.710, -137.027
27.085, 67.729, -137.855
27.479, 67.738, -138.529
27.879, 67.755, -139.053
28.284, 67.793, -139.530
28.696, 67.843, -140.065
29.113, 67.894, -140.688
29.537, 67.933, -141.353
29.966, 67.962, -142.003
30.402, 67.984, -142.620
30.844, 68.001, -143.213
31.293, 68.012, -143.781
31.748, 68.015, -144.293
32.210, 68.018, -144.723
32.678, 68.032, -145.093
33.154, 68.062, -145.484
33.636, 68.102, -145.979
34.125, 68.137, -146.595
34.621, 68.159, -147.281
35.125, 68.167, -147.959
35.636, 68.168, -148.577
36.154, 68.171, -149.125
36.680, 68.185, -149.647
37.214, 68.206, -150.220
37.755, 68.219, -150.864
38.304, 68.211, -151.470
38.861, 68.196, -151.886
39.427, 68.205, -152.143
40.000, 68.244, -152.477
40.582, 68.287, -153.011
41.172, 68.308, -153.644
41.771, 68.311, -154.268
42.379, 68.302, -154.866
42.995, 68.283, -155.383
43.620, 68.272, -155.799
44.255, 68.276, -156.266
44.898, 68.267, -156.827
45.552, 68.242, -157.243
46.214, 68.243, -157.503
46.886, 68.270, -157.896
47.568, 68.280, -158.391
48.260, 68.284, -158.786
48.962, 68.295, -159.207
49.674, 68.288, -159.590
50.397, 68.298, -159.769
51.130, 68.349, -160.183
51.874, 68.352, -160.943
52.628, 68.302, -161.386
53.394, 68.297, -161.611
54.170, 68.300, -162.132
54.958, 68.260, -162.591
55.758, 68.230, -162.812
56.569, 68.214, -163.028
57.391, 68.208, -163.155
58.226, 68.222, -163.339
59.073, 68.223, -163.561
59.932, 68.239, -163.645
60.804, 68.277, -163.908
61.688, 68.293, -164.251
62.586, 68.321, -164.572
63.496, 68.343, -165.114
64.420, 68.339, -165.642
65.357, 68.340, -166.168
66.307, 68.325, -166.797
67.272, 68.291, -167.387
68.250, 68.236, -167.919
69.243, 68.176, -168.254
70.250, 68.130, -168.620
71.272, 68.049, -168.962
72.309, 67.967, -169.005
73.360, 67.905, -168.970
74.427, 67.838, -168.789
75.510, 67.808, -168.378
76.608, 67.797, -168.087
77.723, 67.778, -167.577
78.853, 67.812, -166.932
80.000, 67.885, -166.541
81.164, 67.953, -166.380
82.344, 68.027, -166.466
83.542, 68.060, -166.681
84.757, 68.091, -166.862
85.990, 68.134, -166.765
87.241, 68.202, -166.867
88.510, 68.437, -166.681
89.797, 68.458, -169.218
91.103, 68.345, -167.973
92.428, 68.521, -169.070
93.773, 68.527, -169.063
95.137, 68.532, -169.830
96.520, 68.621, -169.836
97.924, 68.625, -170.585
99.349, 68.654, -171.239
100.794, 68.627, -171.536
102.260, 68.663, -172.151
103.747, 68.657, -172.584
105.256, 68.663, -173.189
106.787, 68.650, -173.720
108.340, 68.596, -174.309
109.916, 68.525, -174.647
111.515, 68.455, -174.709
113.137, 68.426, -174.557
114.783, 68.442, -174.252
116.452, 68.501, -174.412
118.146, 68.532, -174.635
119.865, 68.570, -174.906
121.608, 68.590, -175.265
123.377, 68.623, -175.726
125.171, 68.648, -176.023
126.992, 68.664, -176.502
128.839, 68.637, -176.928
130.713, 68.653, -177.367
132.615, 68.612, -177.714
134.543, 68.619, -178.011
136.500, 68.564, -178.706
138.486, 68.655, -178.348
140.500, 68.584, -179.318
142.544, 68.566, -179.737
144.617, 68.563, -179.916
146.721, 68.544, -179.994
148.855, 68.495, 179.703
151.020, 68.499, 179.343
153.217, 68.477, 179.188
155.445, 68.450, 178.871
157.706, 68.442, 178.577
160.000, 68.439, 178.310
162.327, 68.427, 178.034
164.688, 68.400, 177.783
167.084, 68.415, 177.464
169.514, 68.380, 177.160
171.980, 68.375, 176.700
174.481, 68.349, 176.456
177.019, 68.296, 175.979
179.594, 68.286, 175.714
182.206, 68.229, 175.762
184.856, 68.246, 175.804
187.545, 68.211, 175.440
190.273, 68.197, 175.047
193.041, 68.170, 174.848
195.849, 68.128, 174.718
198.697, 68.112, 174.595
201.587, 68.089, 174.345
204.520, 68.098, 174.142
207.494, 68.062, 173.785
210.512, 68.042, 173.417
213.574, 67.996, 173.360
216.681, 68.012, 172.881
219.833, 67.972, 172.645
223.030, 67.900, 172.735
226.274, 67.894, 172.263
229.565, 67.883, 172.226
232.905, 67.867, 171.753
236.292, 67.817, 171.792
239.729, 67.774, 171.597
243.216, 67.764, 171.265
246.754, 67.726, 170.971
250.343, 67.710, 170.709
253.984, 67.663, 170.435
257.678, 67.605, 170.377
261.426, 67.608, 170.028
265.229, 67.527, 169.869
269.087, 67.496, 169.666
273.001, 67.450, 169.396
276.972, 67.428, 169.445
281.000, 67.385, 169.215
285.088, 67.364, 169.065
289.234, 67.287, 168.876
293.441, 67.268, 168.762
297.710, 67.199, 168.563
302.040, 67.177, 168.473
306.433, 67.161, 168.343
310.890, 67.103, 168.195
315.412, 67.063, 167.949
320.000, 67.026, 167.746
324.655, 66.983, 167.695
329.377, 66.911, 167.538
334.168, 66.881, 167.406
339.028, 66.828, 167.112
343.959, 66.773, 167.282
348.962, 66.725, 167.060
354.038, 66.666, 166.963
359.188, 66.608, 166.790
364.412, 66.557, 166.679
369.713, 66.489, 166.558
375.090, 66.447, 166.545
380.546, 66.404, 166.323
386.081, 66.336, 166.248
391.697, 66.286, 166.373
397.395, 66.237, 166.348
403.175, 66.173, 166.196
409.039, 66.126, 166.171
414.989, 66.051, 166.010
421.025, 65.998, 166.073
427.149, 65.958, 166.503
433.362, 65.896, 166.007
439.665, 65.810, 166.008
446.060, 65.754, 166.127
452.548, 65.691, 166.053
459.131, 65.587, 166.244
465.809, 65.561, 166.127
472.584, 65.512, 165.862
479.458, 65.378, 166.162
486.432, 65.357, 166.430
493.507, 65.320, 166.364
500.686, 65.224, 166.347
507.968, 65.096, 166.433
515.357, 65.042, 166.618
522.853, 64.949, 166.468
530.458, 64.852, 166.858
538.174, 64.873, 167.326
546.002, 64.775, 166.911
553.943, 64.668, 167.345
562.001, 64.636, 167.404
570.175, 64.538, 167.590
578.469, 64.460, 167.875
586.883, 64.378, 167.865
595.419, 64.268, 168.175
604.080, 64.154, 169.262
612.866, 64.172, 169.328
621.780, 64.027, 169.497
630.824, 64.021, 169.574
640.000, 63.889, 169.953
649.309, 63.793, 170.179
658.753, 63.671, 170.533
668.335, 63.602, 171.036
678.056, 63.478, 171.384
687.919, 63.416, 172.026
697.925, 63.336, 172.651
708.076, 63.258, 173.315
718.376, 63.109, 174.357
728.825, 62.997, 175.251
739.426, 62.937, 175.862
750.181, 62.923, 176.811
761.093, 62.934, 178.303
772.163, 62.965, 179.082
783.394, 62.919, 179.743
794.789, 62.919, -179.266
806.349, 62.980, -179.141
818.078, 62.847, -178.664
829.977, 62.964, -177.649
842.050, 62.880, -177.116
854.297, 62.831, -176.595
866.724, 62.769, -175.860
879.330, 62.863, -175.143
892.120, 62.728, -174.604
905.097, 62.728, -172.919
918.262, 62.923, -172.404
931.618, 62.833, -171.810
945.169, 62.844, -171.052
958.917, 62.870, -169.959
972.864, 62.802, -169.424
987.015, 62.828, -168.839
1001.371, 62.792, -167.761
1015.937, 62.838, -166.887
1030.714, 62.860, -166.049
1045.706, 62.911, -165.017
1060.916, 62.942, -164.049
1076.347, 63.065, -163.045
1092.003, 63.083, -162.478
1107.887, 63.144, -161.581
1124.001, 63.217, -160.832
1140.350, 63.311, -160.423
1156.937, 63.428, -159.592
1173.765, 63.461, -158.667
1190.838, 63.506, -157.564
1208.159, 63.580, -157.495
1225.732, 63.655, -156.836
1243.561, 63.746, -155.966
1261.649, 63.896, -155.255
1280.000, 63.961, -154.870
1298.618, 64.049, -154.132
1317.507, 64.144, -153.417
1336.670, 64.293, -153.074
1356.113, 64.413, -152.716
1375.838, 64.493, -152.166
1395.850, 64.606, -152.167
1416.153, 64.712, -151.677
1436.751, 64.789, -151.294
1457.649, 64.928, -150.830
1478.851, 64.982, -150.570
1500.362, 65.074, -150.182
1522.185, 65.214, -149.964
1544.326, 65.332, -149.551
1566.789, 65.389, -149.416
1589.578, 65.554, -149.136
1612.699, 65.640, -148.853
1636.156, 65.771, -149.134
1659.955, 65.835, -148.839
1684.099, 65.951, -148.848
1708.595, 66.030, -148.579
1733.447, 66.110, -149.021
1758.661, 66.173, -149.248
1784.241, 66.145, -149.244
1810.193, 66.159, -149.011
1836.523, 66.172, -148.122
1863.236, 66.249, -147.493
1890.338, 66.347, -146.973
1917.833, 66.445, -146.481
1945.729, 66.554, -146.132
1974.030, 66.645, -145.646
2002.743, 66.737, -145.451
2031.873, 66.826, -144.881
2061.428, 66.894, -144.322
2091.412, 67.053, -143.694
2121.832, 67.186, -142.686
2152.695, 67.334, -142.147
2184.007, 67.527, -141.670
2215.774, 67.796, -141.201
2248.003, 68.035, -140.874
2280.701, 68.345, -140.776
2313.874, 68.596, -141.566
2347.530, 68.799, -142.267
2381.676, 68.943, -143.109
2416.318, 69.114, -143.601
2451.464, 69.226, -144.226
2487.122, 69.371, -144.553
2523.298, 69.491, -145.050
2560.000, 69.645, -145.575
2597.236, 69.771, -146.126
2635.014, 69.900, -146.478
2673.341, 70.039, -147.267
2712.226, 70.173, -147.896
2751.676, 70.273, -148.416
2791.700, 70.401, -149.073
2832.306, 70.524, -149.569
2873.503, 70.681, -150.224
2915.299, 70.816, -151.173
2957.703, 70.954, -152.085
3000.724, 71.074, -152.926
3044.370, 71.191, -153.980
3088.652, 71.317, -154.940
3133.577, 71.429, -155.705
3179.156, 71.622, -157.014
3225.398, 71.785, -158.670
3272.312, 71.853, -160.711
3319.909, 71.868, -162.651
3368.198, 71.845, -164.339
3417.190, 71.835, -165.807
3466.894, 71.832, -167.342
3517.321, 71.819, -169.196
3568.482, 71.736, -171.022
3620.387, 71.643, -172.572
3673.046, 71.589, -174.174
3726.472, 71.453, -176.163
3780.675, 71.276, -177.989
3835.666, 71.083, -179.442
3891.457, 70.907, 178.889
3948.060, 70.669, 176.852
4005.486, 70.358, 175.054
4063.747, 70.008, 173.613
4122.855, 69.592, 172.176
4182.824, 69.116, 170.721
4243.664, 68.574, 169.258
4305.390, 67.767, 168.085
4368.013, 66.689, 168.762
4431.547, 65.635, 173.052
4496.005, 64.949, 179.849
4561.401, 64.712, -172.572
4627.749, 64.891, -166.695
4695.061, 65.109, -161.753
4763.352, 65.361, -157.393
4832.637, 65.811, -153.476
4902.929, 66.309, -151.208
4974.244, 66.689, -149.315
5046.596, 67.075, -147.749
5120.000, 67.497, -146.069
5194.472, 67.955, -145.452
5270.027, 68.323, -145.530
5346.682, 68.613, -145.461
5424.451, 68.916, -145.249
5503.352, 69.201, -145.391
5583.399, 69.395, -145.646
5664.612, 69.555, -145.547
5747.006, 69.713, -144.897
5830.598, 69.953, -143.926
5915.406, 70.258, -143.283
6001.447, 70.585, -142.234
6088.740, 71.034, -141.364
6177.303, 71.549, -141.143
6267.154, 72.052, -141.305
6358.312, 72.662, -141.835
6450.796, 73.326, -143.353
6544.625, 73.938, -146.109
6639.818, 74.451, -149.312
6736.397, 74.900, -153.193
6834.380, 75.213, -157.452
6933.789, 75.427, -161.535
7034.643, 75.602, -165.678
7136.964, 75.722, -170.057
7240.773, 75.765, -174.589
7346.093, 75.704, -179.374
7452.944, 75.499, 175.934
7561.350, 75.131, 171.922
7671.332, 74.669, 169.298
7782.915, 74.311, 168.677
7896.120, 74.350, 168.865
8010.971, 74.784, 167.098
8127.493, 75.268, 161.863
8245.711, 75.473, 153.681
8365.647, 75.207, 143.754
8487.328, 74.362, 133.630
8610.779, 72.978, 125.325
8736.026, 71.419, 118.307
8863.095, 68.984, 114.936
8992.011, 66.464, 117.641
9122.803, 64.166, 128.462
9255.497, 63.251, 145.711
9390.121, 64.066, 159.227
9526.704, 65.266, 163.123
9665.273, 65.870, 162.156
9805.857, 66.020, 160.449
9948.487, 65.888, 158.906
10093.191, 65.611, 157.828
10240.000, 65.140, 156.734
10388.944, 64.383, 156.911
10540.055, 63.486, 159.730
10693.363, 62.675, 166.038
10848.902, 62.238, 176.353
11006.703, 63.048, -170.018
11166.799, 65.492, -163.423
11329.224, 67.870, -170.762
11494.012, 68.712, 174.838
11661.195, 68.278, 163.084
11830.812, 67.474, 155.371
12002.895, 66.621, 149.422
12177.480, 65.649, 143.884
12354.606, 64.432, 138.144
12534.309, 62.688, 132.324
12716.624, 60.161, 129.081
12901.592, 56.367, 128.435
13089.250, 49.471, 156.548
13279.637, 53.210, -137.367
13472.794, 58.513, -131.473
13668.760, 61.304, -133.902
13867.577, 64.102, -138.849
14069.285, 65.928, -153.334
14273.928, 66.224, -170.022
14481.547, 65.105, 178.262
14692.186, 63.837, 173.598
14905.889, 62.755, 174.347
15122.700, 62.745, 173.702
15342.664, 62.199, 167.496
15565.829, 60.782, 162.635
15792.239, 58.672, 162.291
16021.942, 56.261, 172.040
16254.986, 55.524, -168.138
16491.422, 56.450, -152.712
16731.295, 58.330, -141.681
16974.656, 60.955, -140.718
17221.559, 63.000, -151.827
17472.053, 62.971, -166.247
17726.189, 62.072, -173.933
17984.021, 61.203, -176.962
18245.605, 60.525, -178.166
18510.994, 59.952, -177.873
18780.242, 59.786, -176.848
19053.408, 59.789, -178.424
19330.547, 59.689, 179.256
19611.715, 59.609, 176.871
19896.975, 59.912, 171.355
