* Measurement data measured by REW V5.19
* Source: ASIO MOTU M Series, In 1
* Format: 1M Log Swept Sine, 1 sweep at -10.0 dBFS  With no timing reference
* Dated: 14 Jan, 2021 10:01:19 PM
* REW Settings:
*  C-weighting compensation: Off
*  Target level: 75.0 dB
* Note: ; 
* Measurement: Jan 14 22:01:19
* Smoothing: 1/48 octave
* Frequency Step: 1/48 octave
* Start Frequency: 10.1 Hz
*
* Freq(Hz), SPL(dB), Phase(degrees)
10.145, 61.710, -95.354
10.293, 61.753, -96.072
10.443, 61.797, -97.030
10.595, 61.866, -98.273
10.749, 61.938, -99.559
10.905, 61.995, -100.517
11.064, 62.047, -101.355
11.225, 62.106, -102.317
11.388, 62.170, -103.332
11.554, 62.233, -104.314
11.722, 62.296, -105.280
11.892, 62.357, -106.246
12.065, 62.418, -107.214
12.241, 62.477, -108.213
12.419, 62.534, -109.226
12.599, 62.586, -110.216
12.782, 62.633, -111.193
12.968, 62.676, -112.172
13.157, 62.716, -113.127
13.348, 62.751, -114.040
13.543, 62.785, -114.921
13.740, 62.818, -115.767
13.939, 62.853, -116.585
14.142, 62.890, -117.379
14.348, 62.930, -118.160
14.557, 62.971, -118.943
14.768, 63.013, -119.734
14.983, 63.054, -120.535
15.201, 63.092, -121.342
15.422, 63.126, -122.153
15.646, 63.156, -122.950
15.874, 63.182, -123.727
16.105, 63.206, -124.476
16.339, 63.230, -125.195
16.577, 63.254, -125.894
16.818, 63.280, -126.579
17.063, 63.307, -127.264
17.311, 63.334, -127.958
17.563, 63.360, -128.659
17.818, 63.382, -129.363
18.077, 63.401, -130.057
18.340, 63.416, -130.729
18.607, 63.430, -131.373
18.877, 63.446, -131.990
19.152, 63.463, -132.588
19.431, 63.484, -133.185
19.713, 63.506, -133.792
20.000, 63.528, -134.412
20.291, 63.548, -135.038
20.586, 63.565, -135.660
20.885, 63.579, -136.262
21.189, 63.594, -136.840
21.497, 63.610, -137.400
21.810, 63.629, -137.957
22.127, 63.648, -138.520
22.449, 63.666, -139.090
22.776, 63.681, -139.653
23.107, 63.692, -140.189
23.443, 63.703, -140.689
23.784, 63.718, -141.160
24.130, 63.736, -141.630
24.481, 63.755, -142.122
24.837, 63.769, -142.631
25.198, 63.775, -143.120
25.565, 63.775, -143.534
25.937, 63.779, -143.849
26.314, 63.799, -144.104
26.697, 63.839, -144.396
27.085, 63.890, -144.824
27.479, 63.935, -145.416
27.879, 63.956, -146.098
28.284, 63.952, -146.746
28.696, 63.935, -147.267
29.113, 63.921, -147.659
29.537, 63.921, -147.999
29.966, 63.930, -148.361
30.402, 63.940, -148.755
30.844, 63.949, -149.144
31.293, 63.962, -149.509
31.748, 63.983, -149.889
32.210, 64.008, -150.338
32.678, 64.023, -150.851
33.154, 64.023, -151.360
33.636, 64.012, -151.787
34.125, 64.002, -152.121
34.621, 63.998, -152.410
35.125, 63.996, -152.696
35.636, 63.992, -152.968
36.154, 63.989, -153.212
36.680, 63.989, -153.458
37.214, 63.987, -153.736
37.755, 63.975, -153.988
38.304, 63.964, -154.130
38.861, 63.975, -154.223
39.427, 64.006, -154.447
40.000, 64.021, -154.824
40.582, 64.011, -155.090
41.172, 64.015, -155.100
41.771, 64.064, -155.085
42.379, 64.131, -155.307
42.995, 64.171, -155.656
43.620, 64.187, -155.893
44.255, 64.197, -155.934
44.898, 64.228, -155.789
45.552, 64.307, -155.730
46.214, 64.382, -156.198
46.886, 64.347, -156.840
47.568, 64.254, -156.641
48.260, 64.309, -155.918
48.962, 64.480, -156.193
49.674, 64.541, -157.396
50.397, 64.494, -158.232
51.130, 64.480, -158.686
51.874, 64.480, -159.265
52.628, 64.468, -159.627
53.394, 64.515, -159.853
54.170, 64.579, -160.430
54.958, 64.592, -161.058
55.758, 64.589, -161.442
56.569, 64.591, -161.733
57.391, 64.593, -162.024
58.226, 64.581, -162.379
59.073, 64.543, -162.676
59.932, 64.509, -162.798
60.804, 64.502, -162.909
61.688, 64.513, -163.138
62.586, 64.524, -163.513
63.496, 64.519, -163.912
64.420, 64.509, -164.209
65.357, 64.502, -164.428
66.307, 64.500, -164.593
67.272, 64.498, -164.759
68.250, 64.495, -164.878
69.243, 64.503, -165.057
70.250, 64.493, -165.364
71.272, 64.468, -165.537
72.309, 64.461, -165.658
73.360, 64.460, -165.821
74.427, 64.463, -165.993
75.510, 64.463, -166.180
76.608, 64.459, -166.332
77.723, 64.457, -166.473
78.853, 64.450, -166.661
80.000, 64.434, -166.819
81.164, 64.426, -166.937
82.344, 64.425, -167.098
83.542, 64.420, -167.254
84.757, 64.419, -167.337
85.990, 64.420, -167.419
87.241, 64.417, -167.503
88.510, 64.403, -167.584
89.797, 64.402, -167.670
91.103, 64.393, -167.863
92.428, 64.401, -167.955
93.773, 64.415, -168.120
95.137, 64.424, -167.861
96.520, 64.550, -167.866
97.924, 64.509, -168.623
99.349, 64.417, -168.325
100.794, 64.419, -168.083
102.260, 64.431, -168.391
103.747, 64.409, -168.610
105.256, 64.423, -168.763
106.787, 64.418, -168.920
108.340, 64.412, -168.820
109.916, 64.415, -168.790
111.515, 64.412, -168.799
113.137, 64.417, -168.904
114.783, 64.406, -169.010
116.452, 64.410, -169.042
118.146, 64.412, -169.113
119.865, 64.406, -169.176
121.608, 64.404, -169.161
123.377, 64.411, -169.182
125.171, 64.414, -169.235
126.992, 64.415, -169.266
128.839, 64.421, -169.298
130.713, 64.429, -169.328
132.615, 64.445, -169.362
134.543, 64.442, -169.327
136.500, 64.452, -169.310
138.486, 64.452, -169.266
140.500, 64.464, -169.329
142.544, 64.471, -169.372
144.617, 64.481, -169.400
146.721, 64.492, -169.347
148.855, 64.496, -169.318
151.020, 64.498, -169.329
153.217, 64.519, -169.422
155.445, 64.545, -169.435
157.706, 64.569, -169.245
160.000, 64.574, -169.355
162.327, 64.498, -169.217
164.688, 64.603, -169.166
167.084, 64.667, -169.576
169.514, 64.648, -169.616
171.980, 64.636, -169.627
174.481, 64.643, -169.814
177.019, 64.699, -169.874
179.594, 64.728, -169.828
182.206, 64.749, -169.912
184.856, 64.737, -170.075
187.545, 64.739, -170.042
190.273, 64.770, -170.192
193.041, 64.787, -170.687
195.849, 64.798, -170.835
198.697, 64.839, -170.857
201.587, 64.866, -171.066
204.520, 64.877, -171.482
207.494, 64.864, -171.815
210.512, 64.825, -172.157
213.574, 64.764, -172.425
216.681, 64.688, -172.479
219.833, 64.586, -172.391
223.030, 64.515, -171.918
226.274, 64.502, -171.314
229.565, 64.515, -170.941
232.905, 64.543, -170.409
236.292, 64.630, -170.081
239.729, 64.718, -170.042
243.216, 64.822, -170.156
246.754, 64.860, -170.058
250.343, 64.892, -170.324
253.984, 64.945, -170.523
257.678, 65.016, -170.828
261.426, 65.042, -171.351
265.229, 65.119, -171.963
269.087, 65.152, -172.923
273.001, 65.130, -174.011
276.972, 65.061, -175.078
281.000, 64.937, -176.461
285.088, 64.684, -177.558
289.234, 64.333, -177.714
293.441, 63.986, -176.751
297.710, 63.737, -174.867
302.040, 63.639, -172.724
306.433, 63.676, -170.696
310.890, 63.770, -169.253
315.412, 63.892, -168.214
320.000, 64.028, -167.289
324.655, 64.142, -166.763
329.377, 64.281, -166.375
334.168, 64.412, -166.146
339.028, 64.533, -165.888
343.959, 64.609, -165.807
348.962, 64.694, -165.731
354.038, 64.782, -165.850
359.188, 64.862, -165.782
364.412, 64.962, -165.885
369.713, 65.045, -166.063
375.090, 65.115, -166.138
380.546, 65.218, -166.321
386.081, 65.307, -166.725
391.697, 65.337, -167.250
397.395, 65.388, -167.365
403.175, 65.484, -168.005
409.039, 65.487, -168.800
414.989, 65.454, -169.511
421.025, 65.364, -169.935
427.149, 65.303, -169.487
433.362, 65.343, -169.556
439.665, 65.313, -169.425
446.060, 65.354, -169.194
452.548, 65.430, -169.128
459.131, 65.547, -169.316
465.809, 65.638, -170.270
472.584, 65.623, -171.515
479.458, 65.513, -172.616
486.432, 65.261, -173.151
493.507, 65.010, -172.334
500.686, 64.940, -170.764
507.968, 65.018, -169.609
515.357, 65.081, -168.861
522.853, 65.238, -168.162
530.458, 65.409, -168.225
538.174, 65.539, -168.473
546.002, 65.664, -168.676
553.943, 65.820, -169.398
562.001, 65.901, -170.491
570.175, 65.970, -171.124
578.469, 66.123, -172.744
586.883, 66.154, -174.890
595.419, 66.070, -178.429
604.080, 65.530, 178.240
612.866, 64.620, 177.814
621.780, 63.904, -177.911
630.824, 63.851, -173.033
640.000, 64.010, -170.163
649.309, 64.221, -168.210
658.753, 64.508, -166.596
668.335, 64.866, -166.373
678.056, 65.130, -167.283
687.919, 65.221, -168.597
697.925, 65.318, -169.830
708.076, 65.138, -172.259
718.376, 64.627, -172.026
728.825, 64.446, -169.160
739.426, 64.596, -167.566
750.181, 64.690, -166.754
761.093, 64.807, -166.126
772.163, 64.898, -165.926
783.394, 64.930, -165.391
794.789, 65.073, -164.805
806.349, 65.273, -164.561
818.078, 65.405, -165.384
829.977, 65.450, -166.003
842.050, 65.476, -166.422
854.297, 65.405, -166.655
866.724, 65.436, -166.049
879.330, 65.543, -165.803
892.120, 65.684, -166.088
905.097, 65.727, -165.996
918.262, 66.033, -166.507
931.618, 66.216, -168.765
945.169, 66.116, -171.353
958.917, 66.040, -172.805
972.864, 65.842, -176.281
987.015, 65.186, -178.586
1001.371, 64.286, -176.823
1015.937, 63.869, -172.653
1030.714, 63.882, -168.199
1045.706, 64.064, -166.290
1060.916, 64.179, -165.148
1076.347, 64.227, -163.769
1092.003, 64.457, -162.490
1107.887, 64.445, -162.522
1124.001, 64.516, -160.619
1140.350, 64.666, -160.155
1156.937, 64.792, -159.025
1173.765, 65.013, -157.977
1190.838, 65.230, -157.486
1208.159, 65.557, -157.399
1225.732, 65.885, -159.046
1243.561, 65.696, -160.864
1261.649, 65.637, -159.354
1280.000, 65.957, -158.105
1298.618, 66.305, -159.369
1317.507, 66.490, -160.691
1336.670, 66.734, -162.180
1356.113, 67.024, -165.302
1375.838, 66.968, -170.558
1395.850, 66.512, -173.524
1416.153, 66.411, -178.331
1436.751, 65.003, 173.940
1457.649, 62.629, -178.348
1478.851, 62.267, -164.811
1500.362, 63.047, -157.773
1522.185, 63.568, -156.072
1544.326, 63.790, -154.526
1566.789, 64.135, -152.591
1589.578, 64.467, -151.510
1612.699, 64.889, -151.310
1636.156, 65.308, -152.571
1659.955, 65.265, -156.293
1684.099, 64.690, -156.629
1708.595, 64.501, -153.674
1733.447, 64.500, -151.498
1758.661, 64.706, -149.557
1784.241, 64.962, -149.142
1810.193, 64.988, -148.857
1836.523, 65.193, -148.509
1863.236, 65.161, -151.016
1890.338, 64.385, -149.984
1917.833, 64.359, -144.457
1945.729, 64.483, -143.436
1974.030, 64.128, -139.815
2002.743, 64.446, -132.679
2031.873, 65.233, -128.165
2061.428, 66.283, -127.626
2091.412, 66.595, -129.456
2121.832, 66.951, -128.088
2152.695, 67.525, -126.721
2184.007, 68.231, -128.298
2215.774, 68.583, -130.280
2248.003, 68.850, -132.219
2280.701, 68.902, -132.999
2313.874, 69.256, -133.749
2347.530, 69.360, -134.804
2381.676, 69.616, -135.250
2416.318, 69.554, -136.435
2451.464, 69.845, -134.329
2487.122, 70.452, -133.964
2523.298, 71.276, -137.576
2560.000, 71.214, -144.038
2597.236, 70.833, -146.443
2635.014, 70.383, -149.490
2673.341, 69.328, -146.308
2712.226, 69.348, -139.005
2751.676, 69.941, -133.582
2791.700, 71.000, -129.811
2832.306, 72.437, -130.024
2873.503, 73.499, -136.007
2915.299, 73.993, -142.737
2957.703, 74.131, -149.721
3000.724, 73.924, -155.338
3044.370, 73.589, -160.933
3088.652, 72.823, -164.279
3133.577, 71.910, -164.949
3179.156, 71.107, -160.840
3225.398, 71.156, -155.368
3272.312, 71.429, -150.569
3319.909, 72.392, -146.826
3368.198, 73.889, -148.723
3417.190, 74.205, -156.856
3466.894, 74.192, -159.625
3517.321, 74.470, -163.743
3568.482, 74.566, -168.195
3620.387, 74.443, -173.325
3673.046, 74.237, -177.503
3726.472, 73.937, 174.951
3780.675, 72.428, 170.147
3835.666, 70.950, 174.849
3891.457, 70.746, 179.177
3948.060, 69.766, -177.827
4005.486, 70.184, -162.855
4063.747, 72.532, -163.083
4122.855, 72.535, -172.629
4182.824, 72.429, -177.628
4243.664, 71.355, -179.958
4305.390, 70.816, -175.488
4368.013, 70.922, -176.830
4431.547, 69.693, -168.583
4496.005, 71.329, -158.231
4561.401, 72.333, -163.525
4627.749, 72.388, -160.317
4695.061, 74.339, -161.997
4763.352, 74.247, -172.504
4832.637, 74.470, -173.780
4902.929, 74.681, 179.518
4974.244, 74.447, 175.479
5046.596, 74.256, 170.463
5120.000, 73.574, 168.237
5194.472, 73.403, 167.912
5270.027, 73.175, 165.640
5346.682, 72.854, 164.727
5424.451, 72.676, 164.129
5503.352, 72.411, 163.048
5583.399, 72.271, 163.295
5664.612, 72.251, 162.869
5747.006, 72.206, 161.569
5830.598, 72.096, 160.483
5915.406, 72.062, 159.767
6001.447, 72.078, 157.820
6088.740, 71.927, 155.570
6177.303, 71.799, 153.634
6267.154, 71.514, 151.055
6358.312, 71.131, 149.038
6450.796, 70.713, 148.667
6544.625, 70.503, 147.139
6639.818, 70.041, 146.080
6736.397, 69.688, 145.826
6834.380, 69.323, 145.165
6933.789, 68.869, 144.792
7034.643, 68.395, 145.630
7136.964, 68.064, 147.347
7240.773, 67.957, 149.070
7346.093, 67.887, 149.673
7452.944, 67.870, 150.305
7561.350, 67.817, 150.092
7671.332, 67.759, 150.392
7782.915, 67.844, 151.090
7896.120, 68.160, 150.393
8010.971, 68.413, 147.149
8127.493, 68.394, 143.872
8245.711, 68.398, 140.735
8365.647, 68.611, 135.703
8487.328, 68.530, 127.382
8610.779, 68.023, 116.349
8736.026, 66.517, 104.963
8863.095, 64.324, 97.317
8992.011, 61.719, 95.147
9122.803, 59.318, 93.015
9255.497, 56.174, 87.607
9390.121, 50.547, 81.604
9526.704, 45.922, -19.497
9665.273, 52.405, -111.933
9805.857, 56.718, -128.471
9948.487, 58.455, -137.357
10093.191, 59.012, -137.733
10240.000, 60.586, -131.975
10388.944, 62.450, -128.778
10540.055, 64.812, -130.706
10693.363, 66.834, -140.133
10848.902, 67.791, -153.838
11006.703, 67.547, -168.490
11166.799, 66.192, -173.597
11329.224, 65.701, -172.085
11494.012, 65.774, -171.396
11661.195, 66.105, -171.669
11830.812, 66.612, -172.973
12002.895, 67.307, -177.018
12177.480, 67.707, 175.986
12354.606, 67.740, 168.891
12534.309, 67.775, 161.211
12716.624, 67.408, 151.638
12901.592, 66.641, 144.131
13089.250, 65.986, 137.300
13279.637, 65.411, 129.772
13472.794, 64.885, 118.280
13668.760, 63.664, 103.044
13867.577, 61.833, 86.826
14069.285, 59.596, 65.288
14273.928, 56.804, 36.767
14481.547, 55.405, -9.828
14692.186, 54.656, -64.683
14905.889, 55.007, -96.805
15122.700, 55.282, -121.828
15342.664, 54.272, -124.674
15565.829, 55.013, -128.279
15792.239, 54.738, -126.470
16021.942, 55.828, -127.720
16254.986, 55.784, -129.739
16491.422, 55.238, -132.650
16731.295, 55.656, -113.859
16974.656, 58.529, -114.986
17221.559, 60.046, -130.233
17472.053, 59.122, -148.757
17726.189, 56.642, -152.755
17984.021, 54.675, -144.568
18245.605, 54.779, -133.245
18510.994, 55.874, -128.671
18780.242, 56.926, -138.380
19053.408, 55.651, -150.082
19330.547, 52.778, -152.168
19611.715, 50.278, -131.779
19896.975, 50.955, -115.867
