* Measurement data measured by REW V5.19
* Source: ASIO MOTU M Series, In 1
* Format: 1M Log Swept Sine, 2 sweeps at -3.0 dBFS  With no timing reference
* Dated: 19 Sep, 2020 4:44:12 PM
* REW Settings:
*  C-weighting compensation: Off
*  Target level: 75.0 dB
* Note: ; 
* Measurement: Sep 19 16:44:12
* Smoothing: None
* Frequency Step: 1/48 octave
* Start Frequency: 10.1 Hz
*
* Freq(Hz), SPL(dB), Phase(degrees)
10.145, 46.484, -49.070
10.293, 46.116, -50.926
10.443, 45.745, -51.978
10.595, 45.344, -51.160
10.749, 45.033, -49.209
10.905, 44.953, -46.113
11.064, 45.071, -42.374
11.225, 45.436, -39.341
11.388, 46.003, -36.862
11.554, 46.601, -35.633
11.722, 47.237, -35.479
11.892, 47.789, -35.926
12.065, 48.271, -36.935
12.241, 48.666, -37.897
12.419, 48.992, -38.819
12.599, 49.287, -39.360
12.782, 49.572, -39.634
12.968, 49.893, -39.641
13.157, 50.249, -39.654
13.348, 50.657, -39.843
13.543, 51.074, -40.429
13.740, 51.488, -41.476
13.939, 51.845, -42.924
14.142, 52.136, -44.646
14.348, 52.336, -46.452
14.557, 52.460, -48.072
14.768, 52.515, -49.384
14.983, 52.545, -50.193
15.201, 52.582, -50.594
15.422, 52.659, -50.635
15.646, 52.798, -50.684
15.874, 52.979, -50.916
16.105, 53.185, -51.527
16.339, 53.365, -52.522
16.577, 53.499, -53.732
16.818, 53.576, -54.990
17.063, 53.602, -56.013
17.311, 53.614, -56.666
17.563, 53.646, -56.955
17.818, 53.731, -56.975
18.077, 53.886, -57.007
18.340, 54.093, -57.260
18.607, 54.327, -57.811
18.877, 54.562, -58.644
19.152, 54.781, -59.642
19.431, 54.985, -60.673
19.713, 55.183, -61.693
20.000, 55.377, -62.711
20.291, 55.565, -63.742
20.586, 55.737, -64.760
20.885, 55.886, -65.670
21.189, 56.020, -66.337
21.497, 56.167, -66.706
21.810, 56.352, -66.900
22.127, 56.582, -67.178
22.449, 56.824, -67.757
22.776, 57.029, -68.627
23.107, 57.158, -69.498
23.443, 57.222, -69.923
23.784, 57.288, -69.586
24.130, 57.458, -68.639
24.481, 57.787, -67.778
24.837, 58.230, -67.795
25.198, 58.671, -68.999
25.565, 59.001, -71.073
25.937, 59.176, -73.354
26.314, 59.232, -75.213
26.697, 59.253, -76.365
27.085, 59.319, -77.021
27.479, 59.451, -77.658
27.879, 59.605, -78.556
28.284, 59.733, -79.592
28.696, 59.838, -80.483
29.113, 59.956, -81.131
29.537, 60.116, -81.750
29.966, 60.295, -82.601
30.402, 60.448, -83.666
30.844, 60.555, -84.667
31.293, 60.648, -85.383
31.748, 60.766, -85.912
32.210, 60.910, -86.534
32.678, 61.040, -87.340
33.154, 61.130, -88.119
33.636, 61.209, -88.624
34.125, 61.326, -88.936
34.621, 61.492, -89.446
35.125, 61.653, -90.443
35.636, 61.735, -91.744
36.154, 61.713, -92.753
36.680, 61.650, -92.911
37.214, 61.669, -92.203
37.755, 61.840, -91.404
38.304, 62.090, -91.262
38.861, 62.284, -91.614
39.427, 62.401, -91.564
40.000, 62.575, -90.599
40.582, 62.953, -89.511
41.172, 63.476, -89.555
41.771, 63.964, -90.964
42.379, 64.317, -92.982
42.995, 64.580, -94.942
43.620, 64.815, -96.912
44.255, 64.999, -99.099
44.898, 65.095, -101.132
45.552, 65.177, -102.526
46.214, 65.357, -103.690
46.886, 65.599, -105.505
47.568, 65.769, -107.984
48.260, 65.820, -110.455
48.962, 65.789, -112.470
49.674, 65.721, -113.785
50.397, 65.700, -114.427
51.130, 65.754, -115.064
51.874, 65.780, -115.932
52.628, 65.754, -116.369
53.394, 65.776, -116.355
54.170, 65.828, -116.510
54.958, 65.817, -116.534
55.758, 65.805, -115.564
56.569, 66.011, -113.838
57.391, 66.477, -113.292
58.226, 66.908, -114.679
59.073, 67.181, -116.601
59.932, 67.398, -118.661
60.804, 67.525, -120.940
61.688, 67.591, -122.866
62.586, 67.648, -124.622
63.496, 67.697, -126.031
64.420, 67.802, -127.423
65.357, 67.878, -128.927
66.307, 67.989, -130.316
67.272, 68.035, -132.183
68.250, 68.042, -133.100
69.243, 68.204, -134.695
70.250, 68.128, -137.026
71.272, 68.003, -137.797
72.309, 68.013, -138.466
73.360, 68.077, -139.513
74.427, 68.064, -141.240
75.510, 67.955, -142.055
76.608, 67.973, -142.575
77.723, 67.988, -143.402
78.853, 68.004, -144.223
80.000, 67.992, -145.131
81.164, 67.976, -145.930
82.344, 67.946, -147.003
83.542, 67.849, -147.721
84.757, 67.874, -148.236
85.990, 67.843, -149.614
87.241, 67.790, -150.040
88.510, 67.820, -151.209
89.797, 67.724, -151.654
91.103, 67.788, -152.309
92.428, 67.702, -153.106
93.773, 67.703, -153.529
95.137, 67.626, -154.216
96.520, 67.616, -154.574
97.924, 67.563, -155.182
99.349, 67.551, -155.709
100.794, 67.503, -156.209
102.260, 67.494, -156.777
103.747, 67.456, -157.299
105.256, 67.427, -157.842
106.787, 67.387, -158.180
108.340, 67.347, -158.659
109.916, 67.326, -158.999
111.515, 67.258, -159.577
113.137, 67.208, -159.924
114.783, 67.215, -160.105
116.452, 67.165, -160.590
118.146, 67.170, -160.652
119.865, 67.143, -160.905
121.608, 67.145, -161.383
123.377, 67.091, -161.739
125.171, 67.056, -162.158
126.992, 67.066, -162.328
128.839, 67.035, -162.289
130.713, 67.035, -163.202
132.615, 67.019, -163.265
134.543, 66.999, -163.473
136.500, 66.970, -163.887
138.486, 66.930, -164.252
140.500, 66.913, -164.603
142.544, 66.880, -165.010
144.617, 66.880, -165.372
146.721, 66.865, -165.369
148.855, 66.820, -165.627
151.020, 66.807, -165.796
153.217, 66.786, -166.091
155.445, 66.761, -166.438
157.706, 66.744, -166.581
160.000, 66.707, -166.889
162.327, 66.676, -167.084
164.688, 66.621, -167.219
167.084, 66.631, -167.101
169.514, 66.604, -167.332
171.980, 66.570, -167.770
174.481, 66.576, -168.035
177.019, 66.533, -168.312
179.594, 66.512, -168.426
182.206, 66.487, -168.650
184.856, 66.453, -168.629
187.545, 66.419, -168.890
190.273, 66.401, -168.867
193.041, 66.406, -168.978
195.849, 66.378, -168.929
198.697, 66.351, -168.960
201.587, 66.341, -169.365
204.520, 66.315, -169.327
207.494, 66.290, -169.465
210.512, 66.271, -169.529
213.574, 66.260, -169.648
216.681, 66.249, -169.679
219.833, 66.234, -169.832
223.030, 66.225, -169.813
226.274, 66.231, -170.047
229.565, 66.178, -170.360
232.905, 66.156, -170.611
236.292, 66.095, -170.902
239.729, 66.040, -170.863
243.216, 65.990, -171.179
246.754, 65.901, -171.067
250.343, 65.838, -171.079
253.984, 65.766, -171.030
257.678, 65.690, -170.959
261.426, 65.605, -170.781
265.229, 65.556, -170.567
269.087, 65.480, -170.081
273.001, 65.413, -169.807
276.972, 65.387, -169.237
281.000, 65.339, -168.850
285.088, 65.310, -168.400
289.234, 65.282, -167.834
293.441, 65.251, -167.257
297.710, 65.212, -166.607
302.040, 65.193, -165.961
306.433, 65.191, -165.308
310.890, 65.205, -164.608
315.412, 65.256, -163.749
320.000, 65.301, -162.822
324.655, 65.338, -161.900
329.377, 65.447, -161.219
334.168, 65.515, -160.141
339.028, 65.699, -159.970
343.959, 65.708, -158.900
348.962, 66.037, -156.519
354.038, 66.581, -157.248
359.188, 66.961, -159.537
364.412, 67.119, -162.232
369.713, 67.165, -164.470
375.090, 67.282, -165.813
380.546, 67.392, -166.354
386.081, 67.360, -166.821
391.697, 67.316, -167.438
397.395, 67.310, -167.542
403.175, 67.274, -167.917
409.039, 67.303, -168.381
414.989, 67.171, -168.338
421.025, 67.198, -168.628
427.149, 67.138, -168.902
433.362, 67.092, -169.068
439.665, 67.075, -169.029
446.060, 67.064, -169.263
452.548, 67.089, -168.951
459.131, 67.054, -169.003
465.809, 67.046, -168.665
472.584, 67.063, -168.415
479.458, 67.020, -168.462
486.432, 66.960, -169.039
493.507, 66.993, -168.112
500.686, 66.992, -167.744
507.968, 67.047, -167.998
515.357, 67.016, -167.480
522.853, 67.013, -167.062
530.458, 67.081, -166.872
538.174, 67.140, -166.365
546.002, 67.183, -166.428
553.943, 67.243, -166.008
562.001, 67.288, -165.880
570.175, 67.350, -165.693
578.469, 67.403, -165.518
586.883, 67.469, -165.619
595.419, 67.548, -165.495
604.080, 67.687, -165.949
612.866, 67.692, -166.098
621.780, 67.744, -166.243
630.824, 67.797, -166.512
640.000, 67.842, -166.732
649.309, 67.863, -166.615
658.753, 67.928, -166.667
668.335, 67.976, -166.644
678.056, 68.077, -166.998
687.919, 68.169, -167.403
697.925, 68.237, -168.097
708.076, 68.244, -168.768
718.376, 68.230, -169.471
728.825, 68.184, -169.759
739.426, 68.124, -169.858
750.181, 68.089, -169.597
761.093, 68.109, -169.159
772.163, 68.177, -168.972
783.394, 68.287, -169.070
794.789, 68.398, -169.409
806.349, 68.483, -170.234
818.078, 68.498, -171.041
829.977, 68.499, -171.466
842.050, 68.510, -171.832
854.297, 68.471, -172.750
866.724, 68.418, -173.165
879.330, 68.349, -173.480
892.120, 68.338, -173.417
905.097, 68.300, -173.721
918.262, 68.245, -174.164
931.618, 68.215, -173.780
945.169, 68.219, -173.910
958.917, 68.146, -173.723
972.864, 68.150, -173.775
987.015, 68.094, -173.702
1001.371, 68.114, -173.647
1015.937, 68.158, -173.504
1030.714, 68.112, -173.110
1045.706, 68.165, -173.110
1060.916, 68.196, -173.130
1076.347, 68.188, -173.042
1092.003, 68.266, -173.276
1107.887, 68.139, -173.359
1124.001, 68.203, -172.206
1140.350, 68.290, -171.699
1156.937, 68.397, -171.310
1173.765, 68.590, -171.535
1190.838, 68.681, -172.482
1208.159, 68.769, -172.881
1225.732, 68.823, -172.898
1243.561, 68.864, -173.374
1261.649, 68.934, -173.738
1280.000, 69.069, -174.542
1298.618, 69.015, -175.837
1317.507, 69.077, -176.466
1336.670, 69.039, -177.571
1356.113, 68.900, -178.236
1375.838, 68.909, -178.057
1395.850, 68.829, -178.832
1416.153, 68.736, -178.672
1436.751, 68.712, -179.091
1457.649, 68.713, -179.232
1478.851, 68.638, -179.986
1500.362, 68.512, 179.958
1522.185, 68.365, -179.502
1544.326, 68.360, -179.054
1566.789, 68.388, -178.698
1589.578, 68.448, -178.540
1612.699, 68.460, -178.406
1636.156, 68.499, -177.849
1659.955, 68.475, -178.459
1684.099, 68.514, -178.006
1708.595, 68.335, -177.945
1733.447, 68.482, -177.098
1758.661, 68.419, -177.627
1784.241, 68.505, -177.634
1810.193, 68.503, -177.874
1836.523, 68.299, -176.970
1863.236, 68.500, -174.939
1890.338, 68.672, -175.940
1917.833, 68.722, -174.778
1945.729, 68.849, -175.926
1974.030, 68.557, -175.272
2002.743, 68.606, -173.161
2031.873, 69.033, -171.224
2061.428, 69.409, -170.378
2091.412, 69.825, -170.973
2121.832, 70.092, -171.699
2152.695, 70.340, -173.564
2184.007, 70.408, -174.599
2215.774, 70.612, -175.174
2248.003, 70.849, -176.440
2280.701, 71.055, -178.480
2313.874, 71.035, -179.631
2347.530, 71.144, 179.665
2381.676, 71.271, 178.949
2416.318, 71.582, 177.666
2451.464, 71.845, 175.589
2487.122, 72.053, 172.486
2523.298, 72.021, 169.752
2560.000, 71.983, 166.972
2597.236, 71.834, 164.676
2635.014, 71.690, 162.779
2673.341, 71.510, 160.814
2712.226, 71.303, 159.414
2751.676, 71.102, 158.984
2791.700, 71.034, 158.489
2832.306, 71.032, 158.095
2873.503, 71.112, 156.542
2915.299, 71.094, 153.815
2957.703, 70.805, 152.339
3000.724, 70.709, 151.377
3044.370, 70.675, 149.927
3088.652, 70.556, 148.174
3133.577, 70.409, 146.478
3179.156, 70.197, 144.682
3225.398, 69.976, 142.666
3272.312, 69.731, 141.261
3319.909, 69.420, 140.042
3368.198, 69.268, 138.836
3417.190, 69.125, 136.866
3466.894, 68.875, 132.813
3517.321, 67.956, 129.026
3568.482, 66.894, 129.763
3620.387, 66.038, 132.255
3673.046, 65.460, 135.794
3726.472, 65.370, 140.039
3780.675, 65.270, 142.530
3835.666, 65.115, 145.778
3891.457, 65.305, 148.653
3948.060, 65.573, 147.462
4005.486, 65.372, 145.512
4063.747, 64.973, 148.352
4122.855, 65.042, 149.109
4182.824, 64.815, 149.808
4243.664, 64.608, 152.057
4305.390, 64.633, 153.735
4368.013, 64.830, 155.594
4431.547, 65.037, 154.270
4496.005, 64.812, 153.227
4561.401, 64.514, 153.786
4627.749, 64.303, 155.687
4695.061, 64.060, 158.089
4763.352, 64.127, 159.997
4832.637, 64.174, 163.104
4902.929, 64.326, 165.132
4974.244, 64.771, 166.896
5046.596, 64.882, 167.384
5120.000, 65.232, 169.241
5194.472, 65.598, 170.080
5270.027, 65.935, 170.201
5346.682, 66.437, 169.509
5424.451, 66.739, 168.700
5503.352, 67.122, 167.486
5583.399, 67.434, 164.996
5664.612, 67.767, 162.991
5747.006, 67.899, 159.547
5830.598, 67.952, 155.431
5915.406, 67.821, 152.259
6001.447, 67.577, 149.909
6088.740, 67.252, 148.372
6177.303, 66.972, 147.113
6267.154, 66.807, 147.005
6358.312, 66.770, 147.161
6450.796, 66.764, 147.046
6544.625, 66.914, 146.895
6639.818, 67.100, 144.665
6736.397, 67.293, 141.345
6834.380, 67.234, 136.945
6933.789, 66.893, 133.373
7034.643, 66.524, 130.458
7136.964, 66.029, 128.092
7240.773, 65.524, 126.740
7346.093, 65.124, 126.277
7452.944, 64.745, 125.736
7561.350, 64.337, 125.915
7671.332, 64.176, 126.761
7782.915, 64.113, 127.663
7896.120, 64.318, 128.248
8010.971, 64.930, 127.424
8127.493, 65.720, 123.292
8245.711, 66.387, 114.562
8365.647, 66.565, 102.488
8487.328, 66.197, 89.198
8610.779, 65.492, 76.640
8736.026, 64.662, 62.000
8863.095, 62.910, 44.980
8992.011, 61.147, 30.451
9122.803, 59.554, 14.030
9255.497, 58.042, -5.019
9390.121, 57.037, -27.615
9526.704, 56.607, -49.993
9665.273, 56.709, -69.842
9805.857, 57.325, -86.263
9948.487, 57.874, -100.197
10093.191, 58.399, -110.597
10240.000, 58.673, -120.071
10388.944, 58.555, -124.681
10540.055, 58.897, -124.371
10693.363, 59.857, -125.281
10848.902, 60.776, -128.176
11006.703, 61.662, -132.480
11166.799, 62.384, -137.095
11329.224, 63.097, -142.753
11494.012, 63.660, -149.360
11661.195, 64.006, -157.652
11830.812, 63.960, -167.672
12002.895, 63.104, -178.439
12177.480, 61.064, 175.732
12354.606, 59.024, -175.929
12534.309, 59.563, -161.906
12716.624, 61.385, -161.201
12901.592, 62.443, -169.538
13089.250, 62.649, 177.803
13279.637, 61.729, 163.118
13472.794, 59.339, 148.942
13668.760, 54.740, 136.105
13867.577, 42.984, 157.255
14069.285, 50.225, -107.865
14273.928, 55.465, -110.603
14481.547, 57.474, -114.041
14692.186, 59.069, -110.740
14905.889, 61.614, -109.566
15122.700, 64.164, -117.779
15342.664, 65.871, -131.409
15565.829, 66.295, -148.381
15792.239, 65.605, -160.352
16021.942, 64.734, -167.436
16254.986, 63.939, -170.693
16491.422, 63.605, -173.991
16731.295, 63.109, -179.192
16974.656, 61.955, 174.162
17221.559, 59.786, 174.688
17472.053, 58.314, -175.127
17726.189, 57.864, -158.659
17984.021, 60.012, -142.749
18245.605, 63.377, -145.724
18510.994, 64.812, -161.543
18780.242, 64.755, -174.726
19053.408, 64.043, 175.627
19330.547, 63.330, 170.735
19611.715, 62.962, 164.917
19896.975, 62.112, 158.923
