* Measurement data measured by REW V5.19
* Source: In 1-2 (MOTU M Series), no input selected, L, volume: no control
* Format: 1M Log Swept Sine, 1 sweep at -3.0 dBFS  With no timing reference
* Dated: 23 Sep, 2020 4:53:21 PM
* REW Settings:
*  C-weighting compensation: Off
*  Target level: 75.0 dB
* Note: ; 
* Measurement: Sep 23 16:53:21
* Smoothing: None
* Frequency Step: 1/48 octave
* Start Frequency: 10.0 Hz
*
* Freq(Hz), SPL(dB), Phase(degrees)
10.145, 65.423, 74.115
10.293, 65.467, 72.792
10.443, 65.504, 71.570
10.595, 65.537, 70.369
10.749, 65.566, 69.202
10.905, 65.590, 68.069
11.064, 65.613, 66.994
11.225, 65.634, 65.976
11.388, 65.656, 65.025
11.554, 65.681, 64.151
11.722, 65.714, 63.340
11.892, 65.757, 62.597
12.065, 65.812, 61.893
12.241, 65.885, 61.198
12.419, 65.973, 60.486
12.599, 66.078, 59.691
12.782, 66.194, 58.802
12.968, 66.314, 57.754
13.157, 66.434, 56.557
13.348, 66.538, 55.193
13.543, 66.623, 53.700
13.740, 66.676, 52.117
13.939, 66.698, 50.519
14.142, 66.681, 48.967
14.348, 66.637, 47.555
14.557, 66.566, 46.330
14.768, 66.489, 45.339
14.983, 66.411, 44.578
15.201, 66.354, 43.993
15.422, 66.318, 43.500
15.646, 66.310, 43.017
15.874, 66.316, 42.435
16.105, 66.331, 41.736
16.339, 66.337, 40.905
16.577, 66.328, 40.019
16.818, 66.299, 39.121
17.063, 66.255, 38.311
17.311, 66.206, 37.604
17.563, 66.162, 37.005
17.818, 66.134, 36.456
18.077, 66.119, 35.878
18.340, 66.114, 35.228
18.607, 66.109, 34.465
18.877, 66.091, 33.629
19.152, 66.058, 32.776
19.431, 66.008, 31.967
19.713, 65.947, 31.269
20.000, 65.885, 30.717
20.291, 65.832, 30.312
20.586, 65.798, 30.035
20.885, 65.795, 29.832
21.189, 65.830, 29.604
21.497, 65.901, 29.191
21.810, 65.990, 28.456
22.127, 66.068, 27.337
22.449, 66.098, 25.897
22.776, 66.056, 24.341
23.107, 65.936, 22.971
23.443, 65.766, 22.065
23.784, 65.603, 21.709
24.130, 65.493, 21.685
24.481, 65.443, 21.606
24.837, 65.410, 21.214
25.198, 65.338, 20.585
25.565, 65.204, 20.072
25.937, 65.039, 20.025
26.314, 64.911, 20.476
26.697, 64.861, 21.054
27.085, 64.864, 21.322
27.479, 64.851, 21.207
27.879, 64.777, 21.069
28.284, 64.669, 21.353
28.696, 64.601, 22.139
29.113, 64.623, 23.016
29.537, 64.702, 23.519
29.966, 64.765, 23.637
30.402, 64.784, 23.751
30.844, 64.794, 24.154
31.293, 64.846, 24.758
31.748, 64.942, 25.265
32.210, 65.049, 25.603
32.678, 65.155, 25.958
33.154, 65.292, 26.417
33.636, 65.484, 26.759
34.125, 65.710, 26.731
34.621, 65.932, 26.347
35.125, 66.145, 25.759
35.636, 66.363, 24.945
36.154, 66.574, 23.742
36.680, 66.737, 22.176
37.214, 66.833, 20.514
37.755, 66.891, 18.956
38.304, 66.936, 17.388
38.861, 66.939, 15.676
39.427, 66.864, 14.095
40.000, 66.750, 13.139
40.582, 66.699, 12.753
41.172, 66.738, 12.201
41.771, 66.772, 11.182
42.379, 66.745, 10.209
42.995, 66.738, 9.551
43.620, 66.776, 8.565
44.255, 66.722, 6.961
44.898, 66.493, 5.853
45.552, 66.258, 6.128
46.214, 66.200, 6.852
46.886, 66.229, 6.658
47.568, 66.155, 5.781
48.260, 65.961, 5.213
48.962, 65.752, 5.484
49.674, 65.663, 6.352
50.397, 65.724, 6.847
51.130, 65.813, 6.623
51.874, 65.897, 6.292
52.628, 66.037, 5.715
53.394, 66.146, 4.574
54.170, 66.180, 3.558
54.958, 66.200, 2.665
55.758, 66.135, 1.897
56.569, 66.077, 2.042
57.391, 66.130, 1.611
58.226, 65.951, 0.775
59.073, 65.810, 2.359
59.932, 66.110, 2.637
60.804, 66.092, 0.542
61.688, 65.929, 0.932
62.586, 66.095, 0.574
63.496, 65.943, -0.604
64.420, 65.906, 0.552
65.357, 66.056, -0.242
66.307, 65.911, -1.112
67.272, 65.818, -1.352
68.250, 65.611, -1.510
69.243, 65.579, -0.541
70.250, 65.649, -1.177
71.272, 65.591, -1.482
72.309, 65.656, -1.750
73.360, 65.630, -2.496
74.427, 65.560, -2.328
75.510, 65.584, -2.114
76.608, 65.565, -2.296
77.723, 65.535, -2.569
78.853, 65.418, -3.139
80.000, 65.337, -3.002
81.164, 65.349, -3.391
82.344, 65.391, -3.844
83.542, 65.398, -4.805
84.757, 65.334, -4.710
85.990, 65.439, -4.440
87.241, 65.383, -5.576
88.510, 65.083, -4.478
89.797, 65.243, -2.656
91.103, 65.328, -5.541
92.428, 64.821, -2.836
93.773, 65.643, -4.342
95.137, 65.250, -6.304
96.520, 65.269, -7.184
97.924, 65.333, -4.869
99.349, 65.386, -7.736
100.794, 65.170, -6.691
102.260, 65.100, -6.419
103.747, 65.157, -5.914
105.256, 65.048, -6.938
106.787, 65.013, -4.488
108.340, 65.018, -5.514
109.916, 65.041, -4.384
111.515, 65.080, -4.607
113.137, 65.131, -6.990
114.783, 64.821, -6.332
116.452, 65.046, -6.390
118.146, 64.962, -6.070
119.865, 64.972, -8.364
121.608, 64.846, -6.845
123.377, 64.851, -6.811
125.171, 64.916, -6.922
126.992, 64.775, -6.677
128.839, 64.718, -3.667
130.713, 64.916, -6.806
132.615, 64.882, -6.809
134.543, 64.924, -5.719
136.500, 65.059, -7.049
138.486, 65.066, -5.563
140.500, 65.123, -6.978
142.544, 64.812, -6.263
144.617, 65.004, -7.160
146.721, 65.017, -6.699
148.855, 65.024, -6.398
151.020, 64.956, -6.607
153.217, 65.155, -6.967
155.445, 64.821, -7.611
157.706, 64.936, -7.553
160.000, 64.906, -8.256
162.327, 65.016, -7.369
164.688, 65.115, -8.147
167.084, 65.078, -6.522
169.514, 65.064, -7.861
171.980, 64.994, -8.232
174.481, 65.019, -6.886
177.019, 65.062, -8.121
179.594, 65.093, -6.634
182.206, 65.035, -7.787
184.856, 65.119, -8.480
187.545, 65.134, -8.683
190.273, 65.200, -8.668
193.041, 65.306, -9.351
195.849, 65.378, -9.785
198.697, 65.225, -9.623
201.587, 65.297, -10.595
204.520, 65.220, -10.672
207.494, 65.066, -10.486
210.512, 65.232, -10.299
213.574, 65.288, -10.463
216.681, 65.392, -10.740
219.833, 65.304, -11.514
223.030, 65.478, -11.312
226.274, 65.404, -11.735
229.565, 65.307, -12.376
232.905, 65.341, -12.899
236.292, 65.401, -12.751
239.729, 65.310, -13.199
243.216, 65.486, -12.993
246.754, 65.347, -12.324
250.343, 65.387, -13.795
253.984, 65.386, -14.158
257.678, 65.456, -15.262
261.426, 65.431, -15.746
265.229, 65.424, -15.550
269.087, 65.407, -16.172
273.001, 65.326, -15.293
276.972, 65.435, -16.454
281.000, 65.358, -16.640
285.088, 65.278, -17.595
289.234, 65.296, -17.972
293.441, 65.224, -17.968
297.710, 65.303, -18.293
302.040, 65.231, -19.067
306.433, 65.203, -19.213
310.890, 65.238, -19.329
315.412, 65.136, -19.163
320.000, 65.085, -19.496
324.655, 65.092, -19.653
329.377, 65.066, -19.832
334.168, 65.080, -20.174
339.028, 65.054, -20.788
343.959, 65.082, -21.011
348.962, 65.093, -20.943
354.038, 65.031, -21.084
359.188, 64.984, -21.280
364.412, 65.024, -21.390
369.713, 64.987, -21.321
375.090, 64.968, -22.104
380.546, 64.995, -22.301
386.081, 64.993, -22.673
391.697, 64.922, -23.044
397.395, 64.876, -23.545
403.175, 64.780, -23.825
409.039, 64.830, -24.494
414.989, 64.704, -24.704
421.025, 64.595, -24.887
427.149, 64.550, -25.389
433.362, 64.455, -25.269
439.665, 64.342, -24.969
446.060, 64.295, -24.803
452.548, 64.247, -24.327
459.131, 64.197, -23.854
465.809, 64.155, -23.877
472.584, 64.134, -23.699
479.458, 64.160, -23.069
486.432, 64.149, -22.783
493.507, 64.167, -22.299
500.686, 64.177, -21.657
507.968, 64.197, -21.647
515.357, 64.280, -21.542
522.853, 64.276, -21.062
530.458, 64.346, -21.024
538.174, 64.413, -20.835
546.002, 64.451, -20.425
553.943, 64.565, -20.890
562.001, 64.681, -20.700
570.175, 64.648, -21.018
578.469, 64.718, -21.171
586.883, 64.762, -21.569
595.419, 64.826, -21.858
604.080, 64.799, -21.982
612.866, 64.799, -22.250
621.780, 64.814, -22.394
630.824, 64.850, -22.446
640.000, 64.834, -22.219
649.309, 64.871, -22.429
658.753, 64.899, -22.085
668.335, 64.952, -21.762
678.056, 65.047, -21.718
687.919, 65.101, -21.696
697.925, 65.202, -21.391
708.076, 65.284, -21.638
718.376, 65.387, -21.653
728.825, 65.496, -22.031
739.426, 65.601, -22.149
750.181, 65.710, -22.288
761.093, 65.819, -22.798
772.163, 65.901, -23.252
783.394, 66.016, -23.866
794.789, 66.122, -24.310
806.349, 66.195, -24.922
818.078, 66.304, -25.594
829.977, 66.382, -26.212
842.050, 66.459, -26.954
854.297, 66.534, -27.781
866.724, 66.589, -28.623
879.330, 66.618, -29.512
892.120, 66.642, -30.434
905.097, 66.635, -31.332
918.262, 66.608, -32.242
931.618, 66.556, -32.832
945.169, 66.505, -33.239
958.917, 66.449, -33.338
972.864, 66.428, -33.310
987.015, 66.450, -33.062
1001.371, 66.504, -32.967
1015.937, 66.606, -32.986
1030.714, 66.721, -33.133
1045.706, 66.824, -33.884
1060.916, 66.881, -34.431
1076.347, 66.918, -34.966
1092.003, 66.966, -35.344
1107.887, 67.015, -35.769
1124.001, 67.063, -36.023
1140.350, 67.133, -36.421
1156.937, 67.214, -36.826
1173.765, 67.290, -37.260
1190.838, 67.375, -37.747
1208.159, 67.438, -38.244
1225.732, 67.532, -38.828
1243.561, 67.604, -39.391
1261.649, 67.695, -40.073
1280.000, 67.769, -40.791
1298.618, 67.867, -41.720
1317.507, 67.910, -42.645
1336.670, 67.953, -43.622
1356.113, 67.961, -44.698
1375.838, 67.926, -45.725
1395.850, 67.867, -46.669
1416.153, 67.759, -47.411
1436.751, 67.610, -47.720
1457.649, 67.458, -47.335
1478.851, 67.311, -46.306
1500.362, 67.261, -44.440
1522.185, 67.398, -42.308
1544.326, 67.700, -40.548
1566.789, 68.107, -39.858
1589.578, 68.470, -39.896
1612.699, 68.786, -40.412
1636.156, 69.070, -40.949
1659.955, 69.349, -41.477
1684.099, 69.658, -42.090
1708.595, 69.958, -42.851
1733.447, 70.239, -43.963
1758.661, 70.511, -44.987
1784.241, 70.791, -46.139
1810.193, 71.081, -47.248
1836.523, 71.431, -48.696
1863.236, 71.776, -50.550
1890.338, 72.060, -53.022
1917.833, 72.269, -55.689
1945.729, 72.424, -58.143
1974.030, 72.540, -60.659
2002.743, 72.607, -63.150
2031.873, 72.585, -65.199
2061.428, 72.572, -66.214
2091.412, 72.738, -67.149
2121.832, 72.942, -68.767
2152.695, 73.101, -70.725
2184.007, 73.256, -72.881
2215.774, 73.357, -75.224
2248.003, 73.399, -77.514
2280.701, 73.398, -79.697
2313.874, 73.329, -81.550
2347.530, 73.224, -82.685
2381.676, 73.153, -82.816
2416.318, 73.307, -82.074
2451.464, 73.709, -82.191
2487.122, 74.128, -83.804
2523.298, 74.441, -86.406
2560.000, 74.597, -88.653
2597.236, 74.852, -90.278
2635.014, 75.140, -92.577
2673.341, 75.370, -95.043
2712.226, 75.625, -97.269
2751.676, 75.978, -99.819
2791.700, 76.306, -103.109
2832.306, 76.574, -107.056
2873.503, 76.773, -111.233
2915.299, 76.914, -115.450
2957.703, 76.992, -119.842
3000.724, 77.010, -124.265
3044.370, 76.960, -128.298
3088.652, 76.965, -132.283
3133.577, 76.935, -137.101
3179.156, 76.670, -141.794
3225.398, 76.213, -145.549
3272.312, 75.822, -146.751
3319.909, 75.853, -147.126
3368.198, 76.136, -149.709
3417.190, 76.287, -153.993
3466.894, 76.233, -158.853
3517.321, 76.091, -163.321
3568.482, 75.861, -167.485
3620.387, 75.657, -171.287
3673.046, 75.526, -175.304
3726.472, 75.273, 179.896
3780.675, 74.924, 174.886
3835.666, 74.453, 170.145
3891.457, 73.793, 165.692
3948.060, 73.111, 163.003
4005.486, 72.553, 160.298
4063.747, 71.913, 157.209
4122.855, 71.071, 154.086
4182.824, 69.930, 153.783
4243.664, 69.202, 157.023
4305.390, 69.025, 159.232
4368.013, 68.837, 158.703
4431.547, 68.422, 158.444
4496.005, 67.969, 159.547
4561.401, 67.775, 162.062
4627.749, 68.005, 163.168
4695.061, 68.186, 161.694
4763.352, 68.051, 159.576
4832.637, 67.861, 159.087
4902.929, 68.034, 157.937
4974.244, 68.040, 153.896
5046.596, 67.595, 150.293
5120.000, 67.055, 148.806
5194.472, 66.896, 149.892
5270.027, 67.237, 146.334
5346.682, 66.913, 138.352
5424.451, 65.741, 131.514
5503.352, 63.806, 131.645
5583.399, 63.206, 136.361
5664.612, 62.392, 136.693
5747.006, 61.231, 141.519
5830.598, 61.188, 149.053
5915.406, 61.320, 150.194
6001.447, 60.899, 152.938
6088.740, 61.166, 157.371
6177.303, 61.832, 155.496
6267.154, 61.490, 150.036
6358.312, 60.520, 148.523
6450.796, 59.812, 147.689
6544.625, 58.287, 147.358
6639.818, 56.505, 153.836
6736.397, 55.029, 167.179
6834.380, 55.131, -172.214
6933.789, 56.954, -159.479
7034.643, 58.810, -159.857
7136.964, 58.398, -159.843
7240.773, 58.831, -149.578
7346.093, 59.945, -142.049
7452.944, 61.559, -134.335
7561.350, 63.490, -133.338
7671.332, 65.260, -133.460
7782.915, 67.150, -136.774
7896.120, 68.949, -142.929
8010.971, 70.419, -154.092
8127.493, 71.183, -165.735
8245.711, 71.629, -177.878
8365.647, 71.465, 169.518
8487.328, 70.767, 158.855
8610.779, 69.898, 151.211
8736.026, 68.988, 144.610
8863.095, 67.879, 139.967
8992.011, 66.137, 132.350
9122.803, 64.113, 142.343
9255.497, 64.348, 147.728
9390.121, 63.735, 148.478
9526.704, 63.493, 156.246
9665.273, 63.844, 154.947
9805.857, 63.711, 159.096
9948.487, 63.558, 157.640
10093.191, 63.464, 170.187
10240.000, 65.503, 174.653
10388.944, 67.623, 167.326
10540.055, 68.437, 151.919
10693.363, 67.891, 137.151
10848.902, 66.166, 125.093
11006.703, 64.071, 122.375
11166.799, 61.930, 122.271
11329.224, 59.759, 131.534
11494.012, 58.880, 144.246
11661.195, 59.185, 160.957
11830.812, 60.584, 168.497
12002.895, 62.637, 167.130
12177.480, 62.796, 159.708
12354.606, 62.551, 155.891
12534.309, 61.954, 154.831
12716.624, 61.543, 154.980
12901.592, 60.810, 159.396
13089.250, 61.152, 163.823
13279.637, 61.794, 166.904
13472.794, 62.552, 162.886
13668.760, 62.717, 157.788
13867.577, 62.125, 156.156
14069.285, 62.814, 149.012
14273.928, 62.238, 139.632
14481.547, 61.036, 121.268
14692.186, 56.205, 98.255
14905.889, 35.928, 96.119
15122.700, 51.819, -131.983
15342.664, 56.055, -143.275
15565.829, 57.464, -150.250
15792.239, 57.309, -153.241
16021.942, 57.078, -145.619
16254.986, 58.372, -133.574
16491.422, 60.766, -133.535
16731.295, 62.852, -141.810
16974.656, 62.758, -157.599
17221.559, 62.118, -167.019
17472.053, 60.691, -163.002
17726.189, 60.518, -150.648
17984.021, 62.082, -150.687
18245.605, 60.765, -156.332
18510.994, 64.290, -157.917
18780.242, 59.545, -164.192
19053.408, 60.190, 173.345
19330.547, 60.497, 175.377
19611.715, 59.210, 164.319
19896.975, 52.583, -164.170
