* Measurement data measured by REW V5.19
* Source: In 1-2 (MOTU M Series), no input selected, L, volume: no control
* Format: 1M Log Swept Sine, 1 sweep at -3.0 dBFS  With no timing reference
* Dated: 23 Sep, 2020 5:29:10 PM
* REW Settings:
*  C-weighting compensation: Off
*  Target level: 75.0 dB
* Note: ; 
* Measurement: Sep 23 17:29:10
* Smoothing: None
* Frequency Step: 1/48 octave
* Start Frequency: 10.0 Hz
*
* Freq(Hz), SPL(dB), Phase(degrees)
10.145, 70.927, 61.780
10.293, 70.953, 60.746
10.443, 70.964, 59.783
10.595, 70.968, 58.854
10.749, 70.963, 57.993
10.905, 70.950, 57.196
11.064, 70.938, 56.503
11.225, 70.926, 55.918
11.388, 70.925, 55.409
11.554, 70.937, 54.997
11.722, 70.966, 54.604
11.892, 71.017, 54.197
12.065, 71.084, 53.738
12.241, 71.164, 53.146
12.419, 71.251, 52.430
12.599, 71.333, 51.552
12.782, 71.406, 50.538
12.968, 71.456, 49.430
13.157, 71.485, 48.259
13.348, 71.486, 47.117
13.543, 71.466, 46.030
13.740, 71.427, 45.082
13.939, 71.381, 44.270
14.142, 71.336, 43.630
14.348, 71.302, 43.101
14.557, 71.284, 42.672
14.768, 71.284, 42.241
14.983, 71.301, 41.791
15.201, 71.327, 41.251
15.422, 71.355, 40.636
15.646, 71.379, 39.937
15.874, 71.394, 39.204
16.105, 71.400, 38.455
16.339, 71.396, 37.734
16.577, 71.387, 37.053
16.818, 71.375, 36.422
17.063, 71.364, 35.838
17.311, 71.353, 35.296
17.563, 71.345, 34.794
17.818, 71.341, 34.331
18.077, 71.343, 33.901
18.340, 71.351, 33.494
18.607, 71.367, 33.093
18.877, 71.389, 32.678
19.152, 71.415, 32.246
19.431, 71.443, 31.800
19.713, 71.474, 31.356
20.000, 71.510, 30.915
20.291, 71.556, 30.443
20.586, 71.610, 29.886
20.885, 71.666, 29.180
21.189, 71.705, 28.290
21.497, 71.705, 27.294
21.810, 71.655, 26.367
22.127, 71.563, 25.724
22.449, 71.460, 25.530
22.776, 71.393, 25.795
23.107, 71.406, 26.283
23.443, 71.508, 26.577
23.784, 71.657, 26.320
24.130, 71.786, 25.452
24.481, 71.844, 24.210
24.837, 71.816, 22.978
25.198, 71.730, 22.085
25.565, 71.638, 21.635
25.937, 71.584, 21.449
26.314, 71.572, 21.216
26.697, 71.571, 20.747
27.085, 71.542, 20.107
27.479, 71.471, 19.532
27.879, 71.380, 19.218
28.284, 71.302, 19.163
28.696, 71.254, 19.192
29.113, 71.221, 19.150
29.537, 71.180, 19.066
29.966, 71.124, 19.096
30.402, 71.077, 19.322
30.844, 71.059, 19.644
31.293, 71.063, 19.884
31.748, 71.063, 20.009
32.210, 71.042, 20.179
32.678, 71.017, 20.555
33.154, 71.016, 21.103
33.636, 71.046, 21.659
34.125, 71.088, 22.178
34.621, 71.141, 22.777
35.125, 71.236, 23.467
35.636, 71.388, 23.994
36.154, 71.566, 24.139
36.680, 71.725, 24.038
37.214, 71.882, 23.962
37.755, 72.083, 23.797
38.304, 72.317, 23.092
38.861, 72.490, 21.775
39.427, 72.544, 20.439
40.000, 72.543, 19.726
40.582, 72.596, 19.496
41.172, 72.709, 19.074
41.771, 72.807, 18.335
42.379, 72.871, 17.654
42.995, 72.952, 17.036
43.620, 73.042, 16.119
44.255, 73.081, 14.969
44.898, 73.083, 13.960
45.552, 73.091, 12.950
46.214, 73.069, 11.751
46.886, 72.996, 10.764
47.568, 72.950, 10.100
48.260, 72.923, 9.208
48.962, 72.824, 8.428
49.674, 72.745, 8.443
50.397, 72.791, 8.408
51.130, 72.804, 7.752
51.874, 72.733, 7.601
52.628, 72.754, 7.987
53.394, 72.829, 7.853
54.170, 72.856, 7.619
54.958, 72.915, 7.445
55.758, 72.961, 6.843
56.569, 72.961, 6.435
57.391, 73.023, 6.063
58.226, 73.063, 5.206
59.073, 73.061, 4.634
59.932, 73.119, 4.011
60.804, 73.119, 3.013
61.688, 73.080, 2.523
62.586, 73.108, 2.025
63.496, 73.100, 1.190
64.420, 73.071, 0.499
65.357, 73.032, -0.337
66.307, 72.948, -0.874
67.272, 72.948, -1.129
68.250, 72.956, -2.004
69.243, 72.884, -2.553
70.250, 72.883, -2.876
71.272, 72.841, -3.489
72.309, 72.796, -3.762
73.360, 72.742, -4.211
74.427, 72.708, -4.308
75.510, 72.707, -5.167
76.608, 72.584, -5.701
77.723, 72.564, -5.966
78.853, 72.504, -6.465
80.000, 72.486, -6.671
81.164, 72.439, -7.091
82.344, 72.406, -7.127
83.542, 72.400, -7.536
84.757, 72.308, -8.012
85.990, 72.246, -8.011
87.241, 72.180, -8.225
88.510, 72.213, -8.223
89.797, 72.094, -8.995
91.103, 72.170, -8.141
92.428, 72.159, -9.706
93.773, 72.132, -9.493
95.137, 72.054, -10.669
96.520, 71.958, -10.600
97.924, 71.993, -10.322
99.349, 71.961, -11.940
100.794, 71.852, -10.877
102.260, 71.814, -11.346
103.747, 71.864, -10.782
105.256, 71.727, -11.023
106.787, 71.738, -11.306
108.340, 71.666, -11.347
109.916, 71.608, -12.257
111.515, 71.602, -12.028
113.137, 71.661, -12.413
114.783, 71.469, -13.162
116.452, 71.445, -12.155
118.146, 71.425, -12.878
119.865, 71.343, -13.649
121.608, 71.333, -13.248
123.377, 71.189, -13.789
125.171, 71.269, -12.761
126.992, 71.279, -12.013
128.839, 71.146, -12.534
130.713, 71.193, -12.968
132.615, 71.240, -13.265
134.543, 71.155, -12.869
136.500, 71.166, -12.663
138.486, 71.017, -12.390
140.500, 71.100, -12.178
142.544, 71.107, -13.318
144.617, 71.104, -13.455
146.721, 71.125, -12.755
148.855, 71.110, -13.300
151.020, 71.054, -13.529
153.217, 70.977, -13.661
155.445, 70.991, -14.424
157.706, 70.978, -14.192
160.000, 70.976, -14.064
162.327, 71.000, -14.298
164.688, 70.915, -14.076
167.084, 70.790, -14.440
169.514, 70.850, -14.053
171.980, 70.817, -13.972
174.481, 70.882, -13.539
177.019, 71.011, -13.858
179.594, 70.973, -13.960
182.206, 71.005, -14.315
184.856, 71.013, -14.138
187.545, 71.015, -14.422
190.273, 71.111, -14.817
193.041, 71.019, -14.652
195.849, 70.935, -15.294
198.697, 71.043, -15.304
201.587, 71.069, -15.870
204.520, 71.172, -15.959
207.494, 71.261, -16.473
210.512, 71.147, -16.579
213.574, 71.134, -16.744
216.681, 71.167, -17.948
219.833, 71.175, -18.449
223.030, 71.088, -18.486
226.274, 71.061, -18.839
229.565, 71.019, -19.254
232.905, 71.119, -19.416
236.292, 71.027, -20.360
239.729, 70.983, -20.593
243.216, 71.137, -20.859
246.754, 71.218, -21.869
250.343, 70.992, -21.367
253.984, 70.837, -22.587
257.678, 70.902, -22.978
261.426, 70.890, -22.905
265.229, 70.794, -23.813
269.087, 70.851, -24.531
273.001, 70.859, -24.819
276.972, 70.616, -25.974
281.000, 70.662, -26.492
285.088, 70.574, -27.320
289.234, 70.506, -28.004
293.441, 70.366, -28.895
297.710, 70.218, -29.429
302.040, 70.133, -29.937
306.433, 69.911, -30.544
310.890, 69.744, -30.449
315.412, 69.540, -30.661
320.000, 69.383, -31.028
324.655, 69.163, -30.695
329.377, 69.054, -30.487
334.168, 68.930, -29.664
339.028, 68.740, -29.405
343.959, 68.659, -29.338
348.962, 68.583, -28.707
354.038, 68.469, -27.967
359.188, 68.398, -27.612
364.412, 68.369, -27.181
369.713, 68.346, -27.092
375.090, 68.307, -27.142
380.546, 68.151, -27.108
386.081, 68.101, -26.211
391.697, 67.969, -25.843
397.395, 67.912, -25.800
403.175, 67.819, -25.695
409.039, 67.706, -24.953
414.989, 67.634, -25.040
421.025, 67.589, -23.825
427.149, 67.486, -23.160
433.362, 67.375, -22.778
439.665, 67.328, -22.026
446.060, 67.304, -21.421
452.548, 67.215, -20.000
459.131, 67.233, -19.504
465.809, 67.174, -18.279
472.584, 67.227, -17.025
479.458, 67.307, -16.137
486.432, 67.340, -15.609
493.507, 67.296, -14.718
500.686, 67.521, -14.666
507.968, 67.616, -14.117
515.357, 67.730, -14.124
522.853, 67.786, -13.567
530.458, 67.931, -14.549
538.174, 67.981, -15.026
546.002, 67.885, -15.817
553.943, 68.190, -15.850
562.001, 68.016, -16.834
570.175, 67.880, -17.771
578.469, 67.815, -17.409
586.883, 67.703, -17.439
595.419, 67.600, -17.395
604.080, 67.474, -17.471
612.866, 67.436, -17.257
621.780, 67.203, -16.833
630.824, 67.131, -16.287
640.000, 66.971, -14.143
649.309, 66.863, -14.548
658.753, 66.780, -13.339
668.335, 66.740, -12.420
678.056, 66.793, -11.122
687.919, 66.777, -9.971
697.925, 66.755, -9.018
708.076, 66.818, -7.528
718.376, 66.851, -6.652
728.825, 66.856, -6.051
739.426, 66.922, -4.971
750.181, 67.019, -4.021
761.093, 67.053, -3.101
772.163, 67.150, -2.457
783.394, 67.272, -1.498
794.789, 67.376, -0.894
806.349, 67.496, -0.246
818.078, 67.641, 0.372
829.977, 67.725, 1.107
842.050, 67.876, 1.576
854.297, 67.969, 1.921
866.724, 68.161, 2.116
879.330, 68.326, 2.165
892.120, 68.441, 2.125
905.097, 68.577, 1.856
918.262, 68.687, 1.195
931.618, 68.741, 0.658
945.169, 68.739, -0.094
958.917, 68.694, -0.411
972.864, 68.644, -0.189
987.015, 68.573, 0.007
1001.371, 68.553, 0.524
1015.937, 68.538, 1.028
1030.714, 68.544, 1.776
1045.706, 68.558, 2.366
1060.916, 68.555, 3.284
1076.347, 68.599, 4.220
1092.003, 68.677, 5.271
1107.887, 68.778, 6.203
1124.001, 68.924, 7.153
1140.350, 69.070, 8.007
1156.937, 69.288, 8.307
1173.765, 69.455, 8.666
1190.838, 69.604, 8.513
1208.159, 69.733, 8.621
1225.732, 69.857, 8.473
1243.561, 69.954, 8.505
1261.649, 70.028, 8.624
1280.000, 70.112, 8.833
1298.618, 70.222, 9.076
1317.507, 70.331, 9.330
1336.670, 70.450, 9.521
1356.113, 70.585, 9.868
1375.838, 70.741, 9.932
1395.850, 70.897, 10.031
1416.153, 71.048, 9.858
1436.751, 71.207, 9.617
1457.649, 71.367, 9.203
1478.851, 71.491, 8.684
1500.362, 71.557, 8.066
1522.185, 71.637, 7.383
1544.326, 71.658, 6.869
1566.789, 71.671, 6.470
1589.578, 71.666, 6.201
1612.699, 71.641, 6.049
1636.156, 71.573, 6.227
1659.955, 71.491, 7.080
1684.099, 71.551, 8.787
1708.595, 71.841, 10.170
1733.447, 72.183, 9.732
1758.661, 72.342, 8.640
1784.241, 72.356, 7.908
1810.193, 72.361, 7.683
1836.523, 72.383, 7.650
1863.236, 72.414, 7.925
1890.338, 72.451, 8.172
1917.833, 72.517, 8.515
1945.729, 72.611, 8.858
1974.030, 72.702, 9.281
2002.743, 72.851, 9.451
2031.873, 72.969, 9.608
2061.428, 73.079, 9.430
2091.412, 73.176, 9.252
2121.832, 73.233, 9.156
2152.695, 73.266, 9.275
2184.007, 73.312, 9.629
2215.774, 73.376, 10.107
2248.003, 73.458, 10.775
2280.701, 73.596, 11.527
2313.874, 73.773, 12.073
2347.530, 73.954, 12.414
2381.676, 74.120, 12.686
2416.318, 74.265, 13.058
2451.464, 74.478, 13.395
2487.122, 74.670, 13.950
2523.298, 74.948, 14.326
2560.000, 75.222, 14.678
2597.236, 75.574, 14.596
2635.014, 75.924, 14.380
2673.341, 76.354, 13.852
2712.226, 76.805, 12.469
2751.676, 77.230, 10.080
2791.700, 77.460, 7.242
2832.306, 77.602, 4.503
2873.503, 77.693, 2.066
2915.299, 77.765, -0.123
2957.703, 77.850, -2.437
3000.724, 77.940, -4.975
3044.370, 77.994, -7.989
3088.652, 77.934, -11.388
3133.577, 77.784, -14.826
3179.156, 77.492, -17.995
3225.398, 77.137, -20.836
3272.312, 76.700, -23.366
3319.909, 76.099, -25.617
3368.198, 75.344, -26.046
3417.190, 74.720, -23.659
3466.894, 74.645, -21.026
3517.321, 74.676, -21.267
3568.482, 74.480, -22.513
3620.387, 74.141, -23.587
3673.046, 73.655, -24.023
3726.472, 73.147, -22.962
3780.675, 72.820, -21.255
3835.666, 72.551, -20.465
3891.457, 72.175, -19.834
3948.060, 71.754, -18.122
4005.486, 71.443, -15.922
4063.747, 71.177, -14.043
4122.855, 70.860, -12.120
4182.824, 70.558, -9.103
4243.664, 70.481, -5.588
4305.390, 70.526, -3.492
4368.013, 70.452, -1.970
4431.547, 70.412, -0.287
4496.005, 70.343, 1.359
4561.401, 70.225, 2.556
4627.749, 70.051, 4.377
4695.061, 69.972, 6.449
4763.352, 69.867, 8.554
4832.637, 69.844, 10.210
4902.929, 69.687, 11.928
4974.244, 69.653, 14.589
5046.596, 69.792, 16.553
5120.000, 69.910, 17.435
5194.472, 69.959, 17.545
5270.027, 69.899, 17.293
5346.682, 69.803, 17.660
5424.451, 69.885, 16.546
5503.352, 69.512, 13.099
5583.399, 68.881, 11.704
5664.612, 67.959, 8.945
5747.006, 66.567, 9.393
5830.598, 65.194, 14.068
5915.406, 64.144, 20.699
6001.447, 63.256, 26.599
6088.740, 62.424, 35.032
6177.303, 61.776, 42.266
6267.154, 60.669, 53.403
6358.312, 61.152, 66.453
6450.796, 60.757, 72.749
6544.625, 60.613, 88.363
6639.818, 61.856, 98.245
6736.397, 62.307, 107.382
6834.380, 64.548, 116.997
6933.789, 65.557, 107.795
7034.643, 64.767, 107.788
7136.964, 64.594, 106.687
7240.773, 60.451, 124.041
7346.093, 64.949, 147.926
7452.944, 66.248, 144.832
7561.350, 66.788, 149.972
7671.332, 67.781, 159.412
7782.915, 69.972, 158.075
7896.120, 70.872, 154.387
8010.971, 71.523, 151.738
8127.493, 71.960, 152.077
8245.711, 72.943, 149.570
8365.647, 73.449, 144.845
8487.328, 73.800, 139.255
8610.779, 73.828, 132.573
8736.026, 73.911, 125.517
8863.095, 73.236, 116.183
8992.011, 72.058, 106.991
9122.803, 70.296, 98.535
9255.497, 68.095, 92.845
9390.121, 65.783, 87.254
9526.704, 62.563, 78.945
9665.273, 57.895, 66.905
9805.857, 50.428, 38.275
9948.487, 49.441, -47.657
10093.191, 55.115, -74.087
10240.000, 58.791, -78.473
10388.944, 61.811, -78.368
10540.055, 64.759, -82.377
10693.363, 66.765, -97.916
10848.902, 65.846, -112.369
11006.703, 63.769, -114.725
11166.799, 62.183, -108.139
11329.224, 60.487, -97.502
11494.012, 59.217, -79.156
11661.195, 59.723, -57.051
11830.812, 60.966, -41.754
12002.895, 62.591, -28.449
12177.480, 64.422, -22.661
12354.606, 65.449, -18.465
12534.309, 66.584, -13.697
12716.624, 67.777, -10.361
12901.592, 69.159, -10.476
13089.250, 70.023, -15.910
13279.637, 70.050, -23.549
13472.794, 69.137, -30.501
13668.760, 67.485, -34.998
13867.577, 65.009, -35.833
14069.285, 62.011, -29.090
14273.928, 59.264, -12.203
14481.547, 57.402, 11.268
14692.186, 57.505, 42.647
14905.889, 59.957, 58.951
15122.700, 61.979, 59.591
15342.664, 61.910, 50.334
15565.829, 59.883, 43.693
15792.239, 56.247, 40.572
16021.942, 50.040, 43.667
16254.986, 31.145, 67.386
16491.422, 48.236, -116.625
16731.295, 57.640, -117.202
16974.656, 62.829, -130.271
17221.559, 63.730, -147.454
17472.053, 62.869, -161.963
17726.189, 60.321, -159.478
17984.021, 58.262, -129.280
18245.605, 63.221, -102.147
18510.994, 63.982, -125.459
18780.242, 65.753, -113.743
19053.408, 61.849, -98.606
19330.547, 57.459, -91.263
19611.715, 57.693, -78.801
19896.975, 58.197, -72.397
