* Measurement data measured by REW V5.19
* Source: ASIO MOTU M Series, In 1
* Format: 1M Log Swept Sine, 2 sweeps at -3.0 dBFS  With no timing reference
* Dated: 23 Sep, 2020 7:35:49 PM
* REW Settings:
*  C-weighting compensation: Off
*  Target level: 75.0 dB
* Note: ; 
* Measurement: Sep 23 19:35:49
* Smoothing: None
* Frequency Step: 1/48 octave
* Start Frequency: 10.1 Hz
*
* Freq(Hz), SPL(dB), Phase(degrees)
10.145, 52.293, -59.684
10.293, 52.471, -59.691
10.443, 52.657, -59.704
10.595, 52.933, -59.805
10.749, 53.251, -60.118
10.905, 53.597, -60.846
11.064, 53.959, -61.944
11.225, 54.297, -63.472
11.388, 54.609, -65.391
11.554, 54.859, -67.558
11.722, 55.049, -69.952
11.892, 55.159, -72.317
12.065, 55.193, -74.623
12.241, 55.153, -76.569
12.419, 55.050, -78.109
12.599, 54.916, -78.964
12.782, 54.778, -79.158
12.968, 54.690, -78.567
13.157, 54.690, -77.510
13.348, 54.821, -76.098
13.543, 55.070, -74.942
13.740, 55.437, -74.200
13.939, 55.848, -74.247
14.142, 56.274, -75.030
14.348, 56.658, -76.543
14.557, 56.971, -78.522
14.768, 57.195, -80.856
14.983, 57.320, -83.216
15.201, 57.357, -85.418
15.422, 57.313, -87.276
15.646, 57.227, -88.566
15.874, 57.134, -89.279
16.105, 57.071, -89.395
16.339, 57.088, -89.180
16.577, 57.186, -88.931
16.818, 57.362, -88.912
17.063, 57.575, -89.411
17.311, 57.773, -90.410
17.563, 57.921, -91.779
17.818, 57.992, -93.298
18.077, 57.984, -94.598
18.340, 57.933, -95.397
18.607, 57.891, -95.603
18.877, 57.915, -95.314
19.152, 58.053, -94.908
19.431, 58.291, -94.973
19.713, 58.560, -95.815
20.000, 58.782, -97.410
20.291, 58.896, -99.441
20.586, 58.875, -101.382
20.885, 58.751, -102.657
21.189, 58.611, -102.880
21.497, 58.581, -102.199
21.810, 58.734, -101.391
22.127, 59.029, -101.347
22.449, 59.345, -102.465
22.776, 59.561, -104.486
23.107, 59.616, -106.710
23.443, 59.535, -108.350
23.784, 59.423, -108.928
24.130, 59.413, -108.643
24.481, 59.564, -108.333
24.837, 59.812, -108.817
25.198, 60.024, -110.234
25.565, 60.106, -112.025
25.937, 60.060, -113.389
26.314, 59.979, -113.811
26.697, 59.986, -113.461
27.085, 60.131, -113.112
27.479, 60.347, -113.428
27.879, 60.527, -114.408
28.284, 60.621, -115.554
28.696, 60.658, -116.415
29.113, 60.703, -116.940
29.537, 60.788, -117.453
29.966, 60.884, -118.235
30.402, 60.949, -119.236
30.844, 60.974, -120.208
31.293, 60.987, -121.022
31.748, 61.012, -121.777
32.210, 61.042, -122.601
32.678, 61.061, -123.458
33.154, 61.074, -124.237
33.636, 61.096, -124.926
34.125, 61.130, -125.580
34.621, 61.171, -126.157
35.125, 61.241, -126.625
35.636, 61.355, -127.228
36.154, 61.463, -128.300
36.680, 61.470, -129.579
37.214, 61.371, -130.195
37.755, 61.316, -129.762
38.304, 61.420, -129.214
38.861, 61.556, -129.589
39.427, 61.563, -130.204
40.000, 61.532, -129.877
40.582, 61.686, -129.326
41.172, 61.913, -130.231
41.771, 61.934, -132.077
42.379, 61.784, -132.838
42.995, 61.789, -132.517
43.620, 61.952, -133.215
44.255, 61.982, -134.896
44.898, 61.881, -135.836
45.552, 61.866, -136.144
46.214, 61.867, -136.910
46.886, 61.762, -137.169
47.568, 61.787, -136.342
48.260, 62.012, -136.599
48.962, 62.063, -138.453
49.674, 61.837, -139.514
50.397, 61.666, -138.909
51.130, 61.700, -138.434
51.874, 61.760, -139.017
52.628, 61.718, -140.069
53.394, 61.571, -140.638
54.170, 61.477, -140.092
54.958, 61.581, -139.529
55.758, 61.684, -139.970
56.569, 61.636, -139.906
57.391, 61.684, -138.608
58.226, 61.883, -137.897
59.073, 61.978, -137.850
59.932, 62.015, -137.232
60.804, 62.121, -136.747
61.688, 62.170, -136.683
62.586, 62.225, -136.144
63.496, 62.420, -135.887
64.420, 62.653, -136.488
65.357, 62.866, -137.794
66.307, 62.939, -139.420
67.272, 62.931, -139.903
68.250, 63.056, -139.899
69.243, 63.213, -140.320
70.250, 63.357, -141.073
71.272, 63.417, -142.226
72.309, 63.387, -142.787
73.360, 63.503, -142.839
74.427, 63.666, -144.208
75.510, 63.628, -145.468
76.608, 63.589, -145.587
77.723, 63.694, -145.237
78.853, 63.804, -146.207
80.000, 63.732, -146.362
81.164, 63.797, -146.720
82.344, 63.810, -146.964
83.542, 63.894, -148.400
84.757, 63.786, -148.217
85.990, 64.088, -149.437
87.241, 63.796, -150.385
88.510, 63.983, -149.624
89.797, 63.841, -150.037
91.103, 64.086, -150.673
92.428, 63.884, -151.342
93.773, 64.100, -153.041
95.137, 63.916, -151.718
96.520, 64.509, -152.217
97.924, 64.466, -154.903
99.349, 64.116, -151.791
100.794, 64.530, -153.135
102.260, 64.099, -152.459
103.747, 64.162, -153.890
105.256, 64.142, -154.215
106.787, 64.243, -156.626
108.340, 64.052, -157.799
109.916, 64.226, -157.159
111.515, 64.296, -158.618
113.137, 64.154, -159.730
114.783, 64.227, -158.177
116.452, 64.355, -159.319
118.146, 64.180, -159.737
119.865, 63.978, -159.690
121.608, 63.852, -159.732
123.377, 64.054, -158.898
125.171, 63.988, -159.712
126.992, 64.109, -160.125
128.839, 64.174, -160.326
130.713, 64.126, -158.260
132.615, 64.232, -161.186
134.543, 64.222, -161.484
136.500, 64.391, -162.043
138.486, 64.236, -162.116
140.500, 64.207, -162.748
142.544, 64.165, -162.680
144.617, 64.062, -163.503
146.721, 64.023, -163.445
148.855, 64.073, -162.476
151.020, 63.941, -162.657
153.217, 64.101, -163.165
155.445, 63.943, -162.702
157.706, 64.212, -163.856
160.000, 64.242, -163.041
162.327, 64.281, -163.038
164.688, 64.119, -164.286
167.084, 64.060, -164.004
169.514, 64.232, -164.183
171.980, 64.274, -163.732
174.481, 64.287, -164.008
177.019, 64.335, -163.943
179.594, 64.277, -165.037
182.206, 64.324, -164.377
184.856, 64.218, -166.284
187.545, 64.174, -167.612
190.273, 64.166, -166.274
193.041, 64.059, -166.273
195.849, 64.188, -167.043
198.697, 64.016, -167.208
201.587, 64.198, -167.108
204.520, 64.089, -166.301
207.494, 64.097, -167.425
210.512, 64.084, -167.188
213.574, 64.073, -167.312
216.681, 64.054, -167.959
219.833, 64.115, -167.368
223.030, 64.133, -167.483
226.274, 64.089, -167.110
229.565, 64.092, -167.454
232.905, 64.108, -167.249
236.292, 63.952, -168.097
239.729, 64.065, -167.878
243.216, 64.024, -168.142
246.754, 63.783, -167.856
250.343, 63.975, -168.394
253.984, 64.036, -168.411
257.678, 63.957, -168.443
261.426, 63.898, -168.151
265.229, 64.052, -168.795
269.087, 63.975, -168.761
273.001, 63.912, -168.897
276.972, 63.940, -168.979
281.000, 63.988, -168.648
285.088, 63.817, -168.842
289.234, 63.845, -168.996
293.441, 63.947, -169.070
297.710, 63.903, -168.167
302.040, 63.810, -168.908
306.433, 63.931, -169.006
310.890, 63.841, -168.406
315.412, 63.927, -168.177
320.000, 63.855, -168.149
324.655, 63.850, -168.492
329.377, 63.935, -167.874
334.168, 63.852, -167.995
339.028, 63.929, -167.811
343.959, 63.856, -168.503
348.962, 63.840, -168.006
354.038, 63.855, -168.272
359.188, 63.934, -168.362
364.412, 63.976, -168.307
369.713, 63.936, -168.165
375.090, 63.944, -168.640
380.546, 63.991, -168.272
386.081, 63.966, -168.913
391.697, 64.058, -168.459
397.395, 63.912, -169.004
403.175, 63.859, -168.967
409.039, 63.890, -169.351
414.989, 63.997, -168.875
421.025, 63.838, -168.928
427.149, 63.893, -168.951
433.362, 63.896, -168.876
439.665, 63.926, -170.135
446.060, 63.976, -168.464
452.548, 63.734, -170.877
459.131, 63.830, -170.021
465.809, 63.809, -170.098
472.584, 63.882, -170.735
479.458, 63.724, -171.962
486.432, 63.765, -174.113
493.507, 63.429, -174.167
500.686, 62.973, -174.917
507.968, 62.515, -173.547
515.357, 62.319, -169.182
522.853, 62.372, -166.680
530.458, 62.386, -164.785
538.174, 62.710, -164.043
546.002, 62.670, -164.179
553.943, 63.008, -163.815
562.001, 63.041, -163.281
570.175, 63.005, -162.667
578.469, 63.070, -163.057
586.883, 62.898, -163.037
595.419, 63.063, -163.053
604.080, 63.074, -163.106
612.866, 63.168, -162.080
621.780, 63.115, -161.553
630.824, 63.188, -161.203
640.000, 63.124, -162.061
649.309, 63.207, -160.913
658.753, 63.119, -161.920
668.335, 63.053, -160.357
678.056, 63.070, -160.275
687.919, 62.910, -160.590
697.925, 62.838, -160.049
708.076, 62.862, -159.257
718.376, 62.895, -159.637
728.825, 62.884, -159.110
739.426, 62.724, -157.228
750.181, 62.726, -157.557
761.093, 62.735, -156.525
772.163, 62.691, -155.220
783.394, 62.647, -154.593
794.789, 62.518, -152.919
806.349, 62.552, -152.014
818.078, 62.499, -151.185
829.977, 62.714, -151.312
842.050, 62.609, -148.174
854.297, 62.731, -148.207
866.724, 62.732, -145.659
879.330, 62.973, -145.944
892.120, 62.940, -145.055
905.097, 63.115, -143.762
918.262, 63.239, -143.300
931.618, 63.190, -141.954
945.169, 63.506, -140.766
958.917, 63.622, -139.779
972.864, 63.595, -140.150
987.015, 63.965, -138.464
1001.371, 64.152, -137.709
1015.937, 64.405, -137.246
1030.714, 64.730, -137.123
1045.706, 64.888, -136.658
1060.916, 65.089, -137.545
1076.347, 65.022, -137.743
1092.003, 65.113, -137.698
1107.887, 65.311, -137.159
1124.001, 65.344, -137.494
1140.350, 65.523, -138.130
1156.937, 65.529, -137.988
1173.765, 65.682, -138.811
1190.838, 65.623, -140.624
1208.159, 65.311, -140.237
1225.732, 65.039, -138.715
1243.561, 65.178, -135.403
1261.649, 65.435, -134.233
1280.000, 65.763, -133.718
1298.618, 65.786, -133.646
1317.507, 65.900, -133.255
1336.670, 65.866, -132.984
1356.113, 66.005, -133.267
1375.838, 66.109, -131.642
1395.850, 66.081, -129.869
1416.153, 66.215, -129.792
1436.751, 66.407, -128.796
1457.649, 66.554, -127.484
1478.851, 66.638, -126.168
1500.362, 66.864, -125.012
1522.185, 67.132, -124.068
1544.326, 67.414, -122.913
1566.789, 67.594, -121.865
1589.578, 67.939, -120.301
1612.699, 68.379, -120.350
1636.156, 68.694, -120.070
1659.955, 68.938, -119.998
1684.099, 69.293, -120.064
1708.595, 69.481, -119.571
1733.447, 69.914, -119.503
1758.661, 70.240, -119.370
1784.241, 70.521, -119.561
1810.193, 70.795, -119.670
1836.523, 71.287, -120.345
1863.236, 71.577, -120.551
1890.338, 71.925, -120.994
1917.833, 72.342, -121.991
1945.729, 72.696, -122.943
1974.030, 73.071, -124.153
2002.743, 73.451, -125.264
2031.873, 73.832, -126.744
2061.428, 74.280, -128.640
2091.412, 74.648, -130.955
2121.832, 74.997, -133.394
2152.695, 75.240, -136.503
2184.007, 75.383, -139.527
2215.774, 75.560, -143.076
2248.003, 75.617, -145.573
2280.701, 75.666, -148.203
2313.874, 75.574, -150.663
2347.530, 75.655, -152.716
2381.676, 75.606, -155.132
2416.318, 75.638, -156.969
2451.464, 75.563, -158.866
2487.122, 75.593, -160.600
2523.298, 75.549, -163.016
2560.000, 75.445, -164.920
2597.236, 75.376, -166.096
2635.014, 75.279, -167.883
2673.341, 75.230, -169.659
2712.226, 75.240, -171.296
2751.676, 75.127, -173.035
2791.700, 74.962, -174.074
2832.306, 74.799, -175.410
2873.503, 74.788, -176.274
2915.299, 74.716, -177.878
2957.703, 74.587, -179.631
3000.724, 74.457, 179.317
3044.370, 74.335, 178.544
3088.652, 74.270, 177.298
3133.577, 74.182, 176.109
3179.156, 74.033, 175.088
3225.398, 73.831, 174.161
3272.312, 73.632, 172.978
3319.909, 73.476, 173.119
3368.198, 73.355, 172.920
3417.190, 73.280, 172.620
3466.894, 73.400, 172.899
3517.321, 73.423, 170.616
3568.482, 73.261, 168.877
3620.387, 73.099, 168.208
3673.046, 72.907, 167.165
3726.472, 72.764, 166.228
3780.675, 72.586, 165.835
3835.666, 72.429, 165.419
3891.457, 72.278, 165.225
3948.060, 72.175, 164.758
4005.486, 72.144, 164.346
4063.747, 72.062, 162.951
4122.855, 71.839, 161.593
4182.824, 71.528, 160.785
4243.664, 71.203, 160.866
4305.390, 70.978, 161.263
4368.013, 70.808, 161.663
4431.547, 70.625, 161.768
4496.005, 70.420, 161.940
4561.401, 70.154, 162.839
4627.749, 70.054, 164.314
4695.061, 69.968, 165.340
4763.352, 69.891, 166.465
4832.637, 69.905, 168.067
4902.929, 70.099, 169.301
4974.244, 70.343, 169.078
5046.596, 70.443, 168.094
5120.000, 70.456, 167.196
5194.472, 70.384, 166.123
5270.027, 70.207, 165.403
5346.682, 70.007, 165.753
5424.451, 69.903, 166.816
5503.352, 69.907, 167.957
5583.399, 70.016, 169.016
5664.612, 70.181, 169.529
5747.006, 70.387, 169.595
5830.598, 70.615, 169.226
5915.406, 70.850, 168.283
6001.447, 71.070, 166.652
6088.740, 71.209, 164.531
6177.303, 71.267, 162.063
6267.154, 71.221, 159.526
6358.312, 71.073, 157.172
6450.796, 70.853, 155.269
6544.625, 70.616, 153.809
6639.818, 70.373, 152.776
6736.397, 70.176, 152.478
6834.380, 70.056, 152.178
6933.789, 70.013, 151.702
7034.643, 70.041, 150.909
7136.964, 70.141, 149.222
7240.773, 70.144, 146.206
7346.093, 69.905, 142.508
7452.944, 69.448, 140.061
7561.350, 68.989, 138.818
7671.332, 68.643, 138.311
7782.915, 68.401, 137.646
7896.120, 68.223, 136.778
8010.971, 68.123, 135.264
8127.493, 68.028, 132.538
8245.711, 67.772, 128.523
8365.647, 67.279, 124.357
8487.328, 66.609, 120.774
8610.779, 65.794, 117.548
8736.026, 65.214, 113.179
8863.095, 63.553, 108.732
8992.011, 61.785, 108.028
9122.803, 59.934, 111.295
9255.497, 58.343, 118.062
9390.121, 57.096, 127.307
9526.704, 56.368, 137.954
9665.273, 56.128, 147.955
9805.857, 56.160, 156.780
9948.487, 56.418, 164.537
10093.191, 56.855, 171.176
10240.000, 57.426, 176.506
10388.944, 58.044, -179.001
10540.055, 59.031, -176.027
10693.363, 60.110, -178.911
10848.902, 60.259, 174.191
11006.703, 59.449, 170.030
11166.799, 58.398, 171.341
11329.224, 57.598, 176.186
11494.012, 57.146, -176.533
11661.195, 57.169, -167.724
11830.812, 57.863, -159.047
12002.895, 59.091, -153.469
12177.480, 60.519, -151.601
12354.606, 62.026, -153.016
12534.309, 63.536, -158.955
12716.624, 64.623, -170.209
12901.592, 64.812, 175.123
13089.250, 63.869, 160.481
13279.637, 61.990, 150.847
13472.794, 60.078, 147.370
13668.760, 58.377, 145.620
13867.577, 56.463, 144.260
14069.285, 53.974, 146.130
14273.928, 51.164, 154.207
14481.547, 48.795, 176.748
14692.186, 49.052, -158.332
14905.889, 50.874, -141.485
15122.700, 52.819, -136.211
15342.664, 53.934, -134.123
15565.829, 55.064, -131.433
15792.239, 56.765, -133.461
16021.942, 56.440, -146.073
16254.986, 55.690, -147.080
16491.422, 54.366, -141.866
16731.295, 54.553, -127.096
16974.656, 56.872, -121.243
17221.559, 58.308, -131.049
17472.053, 57.564, -137.043
17726.189, 57.286, -133.169
17984.021, 58.043, -129.353
18245.605, 59.415, -130.324
18510.994, 60.736, -137.934
18780.242, 61.411, -151.139
19053.408, 60.919, -166.421
19330.547, 59.501, -178.399
19611.715, 57.719, 173.869
19896.975, 55.754, 168.956
