* Measurement data measured by REW V5.19
* Source: ASIO MOTU M Series, In 1
* Format: 1M Log Swept Sine, 2 sweeps at -3.0 dBFS  With no timing reference
* Dated: 23 Sep, 2020 8:20:57 PM
* REW Settings:
*  C-weighting compensation: Off
*  Target level: 75.0 dB
* Note: ; 
* Measurement: Sep 23 20:20:57
* Smoothing: None
* Frequency Step: 1/48 octave
* Start Frequency: 10.1 Hz
*
* Freq(Hz), SPL(dB), Phase(degrees)
10.145, 75.791, -132.663
10.293, 75.816, -133.543
10.443, 75.841, -134.528
10.595, 75.862, -135.444
10.749, 75.880, -136.374
10.905, 75.892, -137.310
11.064, 75.899, -138.244
11.225, 75.899, -139.150
11.388, 75.893, -140.026
11.554, 75.885, -140.846
11.722, 75.875, -141.613
11.892, 75.869, -142.322
12.065, 75.866, -142.978
12.241, 75.871, -143.608
12.419, 75.884, -144.218
12.599, 75.904, -144.847
12.782, 75.929, -145.498
12.968, 75.955, -146.196
13.157, 75.978, -146.923
13.348, 75.995, -147.680
13.543, 76.004, -148.420
13.740, 76.004, -149.131
13.939, 76.000, -149.765
14.142, 75.995, -150.320
14.348, 75.999, -150.784
14.557, 76.016, -151.210
14.768, 76.051, -151.623
14.983, 76.104, -152.118
15.201, 76.166, -152.737
15.422, 76.232, -153.527
15.646, 76.285, -154.490
15.874, 76.315, -155.581
16.105, 76.314, -156.752
16.339, 76.280, -157.882
16.577, 76.218, -158.897
16.818, 76.137, -159.734
17.063, 76.056, -160.351
17.311, 75.989, -160.803
17.563, 75.946, -161.161
17.818, 75.931, -161.524
18.077, 75.937, -162.004
18.340, 75.949, -162.638
18.607, 75.956, -163.412
18.877, 75.949, -164.279
19.152, 75.924, -165.159
19.431, 75.887, -165.981
19.713, 75.847, -166.722
20.000, 75.814, -167.402
20.291, 75.792, -168.065
20.586, 75.780, -168.762
20.885, 75.770, -169.525
21.189, 75.755, -170.346
21.497, 75.728, -171.177
21.810, 75.689, -171.956
22.127, 75.645, -172.637
22.449, 75.604, -173.201
22.776, 75.577, -173.678
23.107, 75.568, -174.133
23.443, 75.575, -174.644
23.784, 75.589, -175.272
24.130, 75.596, -176.033
24.481, 75.585, -176.881
24.837, 75.549, -177.731
25.198, 75.492, -178.498
25.565, 75.428, -179.138
25.937, 75.369, -179.679
26.314, 75.322, 179.803
26.697, 75.282, 179.230
27.085, 75.238, 178.576
27.479, 75.184, 177.872
27.879, 75.117, 177.175
28.284, 75.043, 176.518
28.696, 74.967, 175.901
29.113, 74.891, 175.307
29.537, 74.815, 174.723
29.966, 74.738, 174.146
30.402, 74.655, 173.590
30.844, 74.565, 173.102
31.293, 74.475, 172.753
31.748, 74.402, 172.564
32.210, 74.366, 172.419
32.678, 74.364, 172.090
33.154, 74.365, 171.439
33.636, 74.332, 170.532
34.125, 74.246, 169.567
34.621, 74.112, 168.703
35.125, 73.934, 168.079
35.636, 73.725, 167.929
36.154, 73.553, 168.457
36.680, 73.513, 169.294
37.214, 73.606, 169.499
37.755, 73.690, 168.614
38.304, 73.639, 167.253
38.861, 73.495, 166.413
39.427, 73.397, 166.107
40.000, 73.377, 165.509
40.582, 73.318, 164.361
41.172, 73.180, 163.344
41.771, 73.056, 162.713
42.379, 72.977, 161.849
42.995, 72.839, 160.589
43.620, 72.619, 159.648
44.255, 72.420, 159.098
44.898, 72.223, 158.273
45.552, 71.905, 157.555
46.214, 71.558, 158.070
46.886, 71.408, 159.078
47.568, 71.338, 158.866
48.260, 71.092, 158.250
48.962, 70.820, 158.806
49.674, 70.749, 159.148
50.397, 70.600, 157.861
51.130, 70.160, 157.047
51.874, 69.754, 158.110
52.628, 69.531, 159.039
53.394, 69.232, 159.760
54.170, 69.028, 161.514
54.958, 69.009, 162.016
55.758, 68.739, 161.378
56.569, 68.375, 162.287
57.391, 68.190, 162.369
58.226, 67.590, 161.168
59.073, 66.701, 164.196
59.932, 66.549, 169.261
60.804, 66.605, 170.168
61.688, 66.211, 170.620
62.586, 65.752, 173.223
63.496, 65.408, 177.156
64.420, 65.329, -178.302
65.357, 65.197, -175.594
66.307, 64.570, -169.923
67.272, 64.657, -159.635
68.250, 65.227, -153.108
69.243, 65.745, -146.502
70.250, 66.703, -142.259
71.272, 67.314, -140.848
72.309, 67.970, -137.900
73.360, 68.836, -138.028
74.427, 69.204, -138.404
75.510, 69.810, -137.111
76.608, 70.271, -137.540
77.723, 70.801, -135.575
78.853, 71.559, -136.219
80.000, 72.054, -136.956
81.164, 72.654, -138.101
82.344, 73.261, -140.190
83.542, 73.791, -143.930
84.757, 74.140, -148.340
85.990, 74.215, -153.441
87.241, 73.985, -157.810
88.510, 73.342, -160.956
89.797, 72.410, -159.120
91.103, 72.070, -153.005
92.428, 72.290, -146.498
93.773, 73.133, -142.892
95.137, 73.886, -141.971
96.520, 74.430, -144.251
97.924, 74.805, -143.664
99.349, 75.322, -146.392
100.794, 75.685, -146.768
102.260, 76.244, -149.842
103.747, 76.457, -152.619
105.256, 76.658, -154.835
106.787, 76.982, -156.685
108.340, 77.037, -160.416
109.916, 77.155, -161.278
111.515, 77.312, -163.005
113.137, 77.501, -164.903
114.783, 77.620, -166.201
116.452, 77.743, -167.815
118.146, 77.900, -169.703
119.865, 77.852, -171.581
121.608, 77.997, -173.564
123.377, 77.973, -175.207
125.171, 78.054, -177.283
126.992, 78.098, -179.528
128.839, 78.059, 178.619
130.713, 78.112, 176.682
132.615, 78.154, 174.866
134.543, 78.041, 173.019
136.500, 78.051, 171.297
138.486, 78.025, 169.590
140.500, 77.938, 167.775
142.544, 77.845, 166.009
144.617, 77.709, 164.070
146.721, 77.646, 162.679
148.855, 77.500, 160.803
151.020, 77.377, 159.093
153.217, 77.166, 156.977
155.445, 76.918, 155.286
157.706, 76.618, 153.907
160.000, 76.264, 153.791
162.327, 75.911, 154.123
164.688, 75.700, 157.156
167.084, 76.099, 157.757
169.514, 76.336, 155.619
171.980, 76.304, 153.307
174.481, 76.233, 151.184
177.019, 76.125, 149.426
179.594, 75.932, 148.088
182.206, 75.672, 147.177
184.856, 75.530, 145.811
187.545, 75.331, 144.911
190.273, 75.108, 143.779
193.041, 74.980, 142.783
195.849, 74.756, 142.455
198.697, 74.583, 141.634
201.587, 74.334, 140.914
204.520, 74.131, 140.337
207.494, 73.924, 139.949
210.512, 73.751, 139.521
213.574, 73.523, 138.945
216.681, 73.271, 138.609
219.833, 73.061, 138.484
223.030, 72.879, 138.159
226.274, 72.667, 137.966
229.565, 72.439, 137.658
232.905, 72.184, 137.657
236.292, 72.028, 137.652
239.729, 71.844, 137.726
243.216, 71.588, 137.893
246.754, 71.400, 138.238
250.343, 71.211, 138.526
253.984, 71.025, 138.694
257.678, 70.730, 138.846
261.426, 70.344, 140.537
265.229, 70.501, 142.701
269.087, 70.532, 142.157
273.001, 70.392, 141.874
276.972, 70.201, 142.023
281.000, 70.054, 142.330
285.088, 69.936, 142.813
289.234, 69.786, 142.921
293.441, 69.657, 143.078
297.710, 69.505, 143.607
302.040, 69.312, 143.933
306.433, 69.138, 144.528
310.890, 68.947, 145.232
315.412, 68.713, 145.969
320.000, 68.456, 147.156
324.655, 68.321, 149.863
329.377, 68.479, 151.811
334.168, 68.585, 152.407
339.028, 68.620, 152.624
343.959, 68.591, 152.985
348.962, 68.562, 153.534
354.038, 68.513, 154.208
359.188, 68.481, 154.518
364.412, 68.420, 155.107
369.713, 68.384, 155.809
375.090, 68.373, 156.548
380.546, 68.361, 157.155
386.081, 68.375, 157.888
391.697, 68.382, 158.471
397.395, 68.432, 159.028
403.175, 68.453, 159.130
409.039, 68.459, 158.980
414.989, 68.389, 159.072
421.025, 68.289, 159.293
427.149, 68.179, 159.969
433.362, 68.058, 160.807
439.665, 67.868, 162.221
446.060, 67.820, 165.109
452.548, 68.061, 168.012
459.131, 68.539, 169.174
465.809, 68.893, 168.723
472.584, 69.156, 167.504
479.458, 69.297, 166.407
486.432, 69.370, 165.236
493.507, 69.394, 164.269
500.686, 69.377, 163.318
507.968, 69.304, 162.510
515.357, 69.192, 162.541
522.853, 69.201, 162.083
530.458, 69.090, 161.733
538.174, 68.992, 161.871
546.002, 68.910, 162.163
553.943, 68.810, 162.622
562.001, 68.811, 163.734
570.175, 68.833, 164.661
578.469, 68.934, 165.789
586.883, 69.191, 166.624
595.419, 69.502, 166.334
604.080, 69.740, 165.197
612.866, 69.918, 163.838
621.780, 70.034, 162.139
630.824, 70.024, 160.189
640.000, 70.003, 158.265
649.309, 69.931, 156.591
658.753, 69.768, 154.876
668.335, 69.534, 153.586
678.056, 69.291, 152.808
687.919, 69.059, 152.219
697.925, 68.839, 151.660
708.076, 68.545, 151.811
718.376, 68.341, 152.492
728.825, 68.308, 152.378
739.426, 68.064, 151.265
750.181, 67.646, 151.556
761.093, 67.268, 153.119
772.163, 66.999, 155.877
783.394, 67.012, 159.567
794.789, 67.329, 161.372
806.349, 67.484, 161.621
818.078, 67.692, 162.484
829.977, 67.856, 162.848
842.050, 68.120, 162.676
854.297, 68.324, 161.874
866.724, 68.505, 160.599
879.330, 68.598, 159.084
892.120, 68.634, 157.406
905.097, 68.547, 155.445
918.262, 68.431, 153.690
931.618, 68.222, 152.250
945.169, 68.027, 151.225
958.917, 67.805, 150.521
972.864, 67.518, 150.195
987.015, 67.372, 150.322
1001.371, 67.217, 149.613
1015.937, 66.950, 149.143
1030.714, 66.689, 148.999
1045.706, 66.458, 149.167
1060.916, 66.219, 149.630
1076.347, 66.049, 150.158
1092.003, 65.856, 150.858
1107.887, 65.691, 151.973
1124.001, 65.594, 151.828
1140.350, 65.376, 152.692
1156.937, 65.314, 153.335
1173.765, 65.219, 153.356
1190.838, 65.004, 153.414
1208.159, 64.825, 153.856
1225.732, 64.639, 154.728
1243.561, 64.514, 155.591
1261.649, 64.366, 156.238
1280.000, 64.232, 156.838
1298.618, 64.079, 157.638
1317.507, 63.906, 158.532
1336.670, 63.761, 159.407
1356.113, 63.638, 160.316
1375.838, 63.522, 161.497
1395.850, 63.387, 162.586
1416.153, 63.294, 163.494
1436.751, 63.186, 164.654
1457.649, 63.100, 165.891
1478.851, 63.017, 166.854
1500.362, 62.940, 167.911
1522.185, 62.850, 169.089
1544.326, 62.791, 170.190
1566.789, 62.756, 171.092
1589.578, 62.655, 171.750
1612.699, 62.511, 172.612
1636.156, 62.311, 173.812
1659.955, 62.171, 175.944
1684.099, 62.124, 178.070
1708.595, 62.122, -179.932
1733.447, 62.148, -178.197
1758.661, 62.241, -176.782
1784.241, 62.257, -175.393
1810.193, 62.308, -174.067
1836.523, 62.348, -173.007
1863.236, 62.357, -171.944
1890.338, 62.377, -170.568
1917.833, 62.390, -169.266
1945.729, 62.412, -167.961
1974.030, 62.389, -166.560
2002.743, 62.349, -164.360
2031.873, 62.629, -161.659
2061.428, 62.855, -160.771
2091.412, 63.031, -159.767
2121.832, 63.267, -159.094
2152.695, 63.458, -159.338
2184.007, 63.490, -159.845
2215.774, 63.403, -159.628
2248.003, 63.337, -158.731
2280.701, 63.288, -157.470
2313.874, 63.274, -156.002
2347.530, 63.305, -154.464
2381.676, 63.338, -152.653
2416.318, 63.463, -150.762
2451.464, 63.693, -149.792
2487.122, 63.705, -148.579
2523.298, 63.896, -146.838
2560.000, 64.080, -145.716
2597.236, 64.261, -144.744
2635.014, 64.443, -143.885
2673.341, 64.608, -143.172
2712.226, 64.745, -142.411
2751.676, 64.858, -141.759
2791.700, 64.977, -140.928
2832.306, 65.083, -140.078
2873.503, 65.174, -139.196
2915.299, 65.247, -138.080
2957.703, 65.311, -136.797
3000.724, 65.391, -135.141
3044.370, 65.500, -133.112
3088.652, 65.653, -130.957
3133.577, 65.869, -128.574
3179.156, 66.133, -126.020
3225.398, 66.481, -123.469
3272.312, 66.907, -120.978
3319.909, 67.423, -118.628
3368.198, 68.016, -116.557
3417.190, 68.700, -114.984
3466.894, 69.432, -114.102
3517.321, 70.188, -113.668
3568.482, 71.034, -113.995
3620.387, 71.812, -115.849
3673.046, 72.381, -117.643
3726.472, 72.987, -118.304
3780.675, 73.833, -119.358
3835.666, 74.791, -121.911
3891.457, 75.702, -126.064
3948.060, 76.524, -131.525
4005.486, 77.281, -138.567
4063.747, 77.679, -147.441
4122.855, 77.639, -155.527
4182.824, 77.534, -161.710
4243.664, 77.557, -168.407
4305.390, 77.439, -177.441
4368.013, 76.557, 173.087
4431.547, 75.413, 169.948
4496.005, 74.703, 164.385
4561.401, 73.349, 161.083
4627.749, 72.180, 160.960
4695.061, 71.060, 161.908
4763.352, 70.017, 164.369
4832.637, 69.100, 168.663
4902.929, 68.441, 174.434
4974.244, 68.083, -179.250
5046.596, 68.031, -173.109
5120.000, 68.224, -167.764
5194.472, 68.547, -163.374
5270.027, 68.988, -159.622
5346.682, 69.450, -157.836
5424.451, 69.678, -156.322
5503.352, 69.847, -153.179
5583.399, 70.228, -148.537
5664.612, 71.024, -143.258
5747.006, 72.431, -139.240
5830.598, 74.294, -140.744
5915.406, 75.589, -148.689
6001.447, 76.020, -156.006
6088.740, 76.415, -160.730
6177.303, 76.867, -166.640
6267.154, 77.031, -172.953
6358.312, 77.027, -178.238
6450.796, 77.027, 177.421
6544.625, 77.110, 173.190
6639.818, 77.262, 168.271
6736.397, 77.354, 162.201
6834.380, 77.281, 155.086
6933.789, 76.966, 147.416
7034.643, 76.326, 139.470
7136.964, 75.257, 132.423
7240.773, 73.797, 128.544
7346.093, 72.347, 128.915
7452.944, 71.264, 132.789
7561.350, 70.774, 138.143
7671.332, 70.824, 142.452
7782.915, 71.154, 144.051
7896.120, 71.458, 143.523
8010.971, 71.603, 143.030
8127.493, 72.347, 141.851
8245.711, 72.891, 134.915
8365.647, 72.753, 126.653
8487.328, 72.256, 120.697
8610.779, 71.898, 116.222
8736.026, 71.854, 109.234
8863.095, 71.254, 101.871
8992.011, 70.757, 91.763
9122.803, 69.345, 79.265
9255.497, 67.065, 70.114
9390.121, 64.357, 65.334
9526.704, 61.350, 66.555
9665.273, 58.555, 75.212
9805.857, 56.925, 90.558
9948.487, 57.084, 101.029
10093.191, 56.690, 97.481
10240.000, 52.761, 103.431
10388.944, 53.866, 139.331
10540.055, 56.605, 139.474
10693.363, 57.859, 129.837
10848.902, 57.561, 117.479
11006.703, 56.110, 104.576
11166.799, 53.081, 93.621
11329.224, 48.358, 90.572
11494.012, 40.944, 107.631
11661.195, 39.605, -176.819
11830.812, 44.691, -151.492
12002.895, 48.632, -142.133
12177.480, 51.751, -147.113
12354.606, 53.336, -158.532
12534.309, 53.616, -174.731
12716.624, 51.434, 167.390
12901.592, 46.030, 156.506
13089.250, 31.762, -140.731
13279.637, 45.818, -73.954
13472.794, 51.377, -81.158
13668.760, 54.225, -87.973
13867.577, 56.526, -99.258
14069.285, 56.916, -112.546
14273.928, 56.630, -115.458
14481.547, 57.432, -120.143
14692.186, 56.528, -132.554
14905.889, 53.592, -124.336
15122.700, 55.276, -101.478
15342.664, 58.014, -105.815
15565.829, 58.651, -116.341
15792.239, 58.065, -120.610
16021.942, 58.258, -117.905
16254.986, 58.978, -121.788
16491.422, 59.061, -125.424
16731.295, 59.050, -129.082
16974.656, 59.626, -129.472
17221.559, 60.530, -145.036
17472.053, 57.883, -161.444
17726.189, 55.052, -156.034
17984.021, 53.812, -144.921
18245.605, 53.784, -135.695
18510.994, 54.524, -129.983
18780.242, 55.263, -130.374
19053.408, 55.898, -134.038
19330.547, 55.840, -140.834
19611.715, 55.453, -148.828
19896.975, 54.241, -155.052
