* Measurement data measured by REW V5.19
* Source: ASIO MOTU M Series, In 1
* Format: 1M Log Swept Sine, 2 sweeps at -3.0 dBFS  With no timing reference
* Dated: 23 Sep, 2020 8:17:48 PM
* REW Settings:
*  C-weighting compensation: Off
*  Target level: 75.0 dB
* Note: ; 
* Measurement: Sep 23 20:17:48
* Smoothing: None
* Frequency Step: 1/48 octave
* Start Frequency: 10.1 Hz
*
* Freq(Hz), SPL(dB), Phase(degrees)
10.145, 76.307, -120.897
10.293, 76.332, -121.833
10.443, 76.358, -122.858
10.595, 76.386, -123.767
10.749, 76.416, -124.676
10.905, 76.447, -125.591
11.064, 76.479, -126.514
11.225, 76.510, -127.451
11.388, 76.542, -128.400
11.554, 76.571, -129.362
11.722, 76.598, -130.333
11.892, 76.620, -131.303
12.065, 76.639, -132.269
12.241, 76.653, -133.212
12.419, 76.663, -134.130
12.599, 76.672, -135.006
12.782, 76.680, -135.841
12.968, 76.690, -136.629
13.157, 76.703, -137.379
13.348, 76.722, -138.096
13.543, 76.747, -138.804
13.740, 76.779, -139.510
13.939, 76.816, -140.241
14.142, 76.856, -141.001
14.348, 76.895, -141.800
14.557, 76.932, -142.629
14.768, 76.963, -143.482
14.983, 76.986, -144.335
15.201, 77.004, -145.173
15.422, 77.015, -145.983
15.646, 77.023, -146.751
15.874, 77.030, -147.484
16.105, 77.038, -148.185
16.339, 77.047, -148.873
16.577, 77.058, -149.558
16.818, 77.067, -150.249
17.063, 77.075, -150.947
17.311, 77.078, -151.641
17.563, 77.077, -152.320
17.818, 77.073, -152.971
18.077, 77.069, -153.589
18.340, 77.068, -154.181
18.607, 77.072, -154.767
18.877, 77.081, -155.366
19.152, 77.093, -156.002
19.431, 77.106, -156.689
19.713, 77.114, -157.423
20.000, 77.116, -158.187
20.291, 77.109, -158.954
20.586, 77.095, -159.697
20.885, 77.078, -160.394
21.189, 77.061, -161.038
21.497, 77.050, -161.644
21.810, 77.048, -162.240
22.127, 77.052, -162.857
22.449, 77.059, -163.514
22.776, 77.066, -164.211
23.107, 77.069, -164.931
23.443, 77.067, -165.651
23.784, 77.062, -166.358
24.130, 77.057, -167.059
24.481, 77.050, -167.767
24.837, 77.038, -168.486
25.198, 77.017, -169.196
25.565, 76.988, -169.856
25.937, 76.955, -170.431
26.314, 76.928, -170.925
26.697, 76.913, -171.384
27.085, 76.910, -171.874
27.479, 76.911, -172.440
27.879, 76.910, -173.081
28.284, 76.899, -173.765
28.696, 76.881, -174.458
29.113, 76.856, -175.143
29.537, 76.828, -175.814
29.966, 76.798, -176.480
30.402, 76.766, -177.151
30.844, 76.728, -177.834
31.293, 76.682, -178.502
31.748, 76.628, -179.106
32.210, 76.578, -179.629
32.678, 76.540, 179.848
33.154, 76.501, 179.225
33.636, 76.436, 178.549
34.125, 76.336, 178.079
34.621, 76.246, 178.034
35.125, 76.232, 178.220
35.636, 76.300, 178.085
36.154, 76.369, 177.289
36.680, 76.359, 176.155
37.214, 76.273, 175.313
37.755, 76.197, 174.998
38.304, 76.197, 174.823
38.861, 76.245, 174.255
39.427, 76.269, 173.258
40.000, 76.231, 172.164
40.582, 76.155, 171.277
41.172, 76.078, 170.618
41.771, 76.018, 170.010
42.379, 75.960, 169.285
42.995, 75.872, 168.499
43.620, 75.757, 167.882
44.255, 75.652, 167.487
44.898, 75.580, 167.071
45.552, 75.509, 166.444
46.214, 75.407, 165.776
46.886, 75.296, 165.348
47.568, 75.236, 165.043
48.260, 75.222, 164.357
48.962, 75.164, 163.152
49.674, 75.013, 161.996
50.397, 74.835, 161.299
51.130, 74.683, 160.718
51.874, 74.506, 160.080
52.628, 74.309, 159.752
53.394, 74.162, 159.533
54.170, 74.015, 158.878
54.958, 73.783, 158.204
55.758, 73.531, 158.025
56.569, 73.311, 157.945
57.391, 73.061, 157.905
58.226, 72.800, 158.299
59.073, 72.555, 158.977
59.932, 72.297, 160.142
60.804, 72.104, 162.184
61.688, 72.081, 164.724
62.586, 72.275, 166.949
63.496, 72.602, 167.855
64.420, 72.919, 167.607
65.357, 73.236, 166.297
66.307, 73.409, 163.479
67.272, 73.298, 160.725
68.250, 73.158, 158.867
69.243, 72.984, 156.267
70.250, 72.547, 153.995
71.272, 72.098, 153.120
72.309, 71.656, 152.220
73.360, 71.167, 152.067
74.427, 70.734, 151.812
75.510, 70.171, 151.924
76.608, 69.695, 152.720
77.723, 69.124, 153.142
78.853, 68.526, 154.956
80.000, 67.958, 156.447
81.164, 67.190, 159.472
82.344, 66.590, 164.293
83.542, 66.091, 170.125
84.757, 65.879, 177.075
85.990, 65.762, -177.392
87.241, 65.602, -168.747
88.510, 66.123, -161.385
89.797, 66.757, -154.719
91.103, 67.386, -150.704
92.428, 68.384, -145.347
93.773, 69.310, -143.910
95.137, 70.231, -144.006
96.520, 70.869, -142.237
97.924, 71.884, -144.246
99.349, 72.561, -146.238
100.794, 73.018, -149.608
102.260, 73.416, -154.443
103.747, 72.791, -157.254
105.256, 72.450, -153.477
106.787, 73.033, -149.549
108.340, 73.722, -148.164
109.916, 74.456, -149.777
111.515, 75.107, -150.459
113.137, 75.471, -153.534
114.783, 75.840, -154.745
116.452, 76.122, -157.167
118.146, 76.496, -159.854
119.865, 76.559, -162.942
121.608, 76.773, -165.785
123.377, 76.884, -167.225
125.171, 76.883, -168.742
126.992, 77.075, -170.142
128.839, 77.222, -172.497
130.713, 77.066, -174.408
132.615, 77.278, -175.477
134.543, 77.405, -176.997
136.500, 77.592, -179.329
138.486, 77.609, 178.296
140.500, 77.629, 175.696
142.544, 77.589, 172.225
144.617, 77.282, 169.124
146.721, 76.664, 168.186
148.855, 76.413, 170.807
151.020, 76.660, 171.650
153.217, 76.850, 170.417
155.445, 76.890, 168.907
157.706, 76.863, 167.028
160.000, 76.870, 165.705
162.327, 76.781, 164.219
164.688, 76.706, 163.431
167.084, 76.601, 161.760
169.514, 76.466, 160.446
171.980, 76.235, 159.746
174.481, 76.123, 159.830
177.019, 76.078, 159.544
179.594, 76.126, 158.510
182.206, 76.111, 156.801
184.856, 75.946, 155.984
187.545, 75.775, 155.174
190.273, 75.579, 155.187
193.041, 75.591, 155.184
195.849, 75.677, 154.464
198.697, 75.689, 153.588
201.587, 75.631, 151.939
204.520, 75.492, 150.641
207.494, 75.399, 149.359
210.512, 75.280, 148.693
213.574, 75.184, 147.971
216.681, 75.073, 146.826
219.833, 74.954, 145.966
223.030, 74.790, 144.933
226.274, 74.575, 143.808
229.565, 74.396, 143.118
232.905, 74.170, 142.263
236.292, 73.983, 141.248
239.729, 73.806, 140.570
243.216, 73.553, 139.855
246.754, 73.333, 139.136
250.343, 73.041, 137.738
253.984, 72.605, 135.984
257.678, 71.173, 135.292
261.426, 71.435, 147.195
265.229, 71.511, 148.326
269.087, 72.288, 148.494
273.001, 72.293, 146.089
276.972, 72.122, 145.902
281.000, 72.165, 145.651
285.088, 72.081, 144.868
289.234, 71.891, 144.686
293.441, 71.758, 144.779
297.710, 71.669, 144.686
302.040, 71.571, 144.788
306.433, 71.448, 144.647
310.890, 71.346, 144.712
315.412, 71.225, 144.294
320.000, 71.115, 144.393
324.655, 70.983, 144.127
329.377, 70.824, 143.883
334.168, 70.595, 143.594
339.028, 70.183, 143.382
343.959, 69.593, 145.745
348.962, 69.564, 151.290
354.038, 70.008, 153.336
359.188, 70.291, 153.320
364.412, 70.434, 153.129
369.713, 70.547, 152.892
375.090, 70.670, 152.530
380.546, 70.695, 151.692
386.081, 70.683, 151.607
391.697, 70.728, 150.960
397.395, 70.699, 150.378
403.175, 70.680, 149.484
409.039, 70.609, 148.304
414.989, 70.470, 147.029
421.025, 70.119, 145.577
427.149, 69.450, 146.333
433.362, 69.170, 151.004
439.665, 69.627, 153.859
446.060, 70.032, 151.882
452.548, 69.888, 147.917
459.131, 68.955, 146.005
465.809, 67.897, 152.394
472.584, 68.170, 162.498
479.458, 69.239, 166.756
486.432, 70.158, 166.359
493.507, 70.784, 164.197
500.686, 71.201, 161.622
507.968, 71.481, 158.959
515.357, 71.668, 156.234
522.853, 71.747, 153.455
530.458, 71.756, 150.768
538.174, 71.697, 148.198
546.002, 71.579, 145.800
553.943, 71.427, 143.638
562.001, 71.241, 141.442
570.175, 70.947, 139.603
578.469, 70.700, 137.951
586.883, 70.375, 136.510
595.419, 70.018, 135.462
604.080, 69.678, 134.669
612.866, 69.300, 134.085
621.780, 68.908, 133.851
630.824, 68.480, 134.103
640.000, 68.083, 134.814
649.309, 67.692, 136.380
658.753, 67.442, 138.539
668.335, 67.391, 140.049
678.056, 67.209, 140.380
687.919, 66.887, 141.951
697.925, 66.755, 144.298
708.076, 66.788, 146.216
718.376, 66.811, 147.793
728.825, 66.954, 149.172
739.426, 66.996, 149.469
750.181, 67.000, 150.616
761.093, 67.170, 151.916
772.163, 67.419, 151.877
783.394, 67.556, 150.749
794.789, 67.568, 149.761
806.349, 67.526, 149.141
818.078, 67.444, 148.703
829.977, 67.373, 148.518
842.050, 67.305, 148.360
854.297, 67.259, 148.248
866.724, 67.209, 148.411
879.330, 67.208, 148.294
892.120, 67.197, 148.308
905.097, 67.213, 147.961
918.262, 67.244, 147.219
931.618, 67.184, 146.579
945.169, 67.201, 145.166
958.917, 67.090, 144.104
972.864, 66.975, 142.700
987.015, 66.770, 141.741
1001.371, 66.584, 140.537
1015.937, 66.337, 139.495
1030.714, 66.056, 138.756
1045.706, 65.701, 138.052
1060.916, 65.341, 137.907
1076.347, 64.972, 138.180
1092.003, 64.631, 138.792
1107.887, 64.347, 139.762
1124.001, 64.074, 140.877
1140.350, 63.949, 142.023
1156.937, 63.813, 142.235
1173.765, 63.616, 141.866
1190.838, 63.353, 141.856
1208.159, 62.942, 142.014
1225.732, 62.567, 142.959
1243.561, 62.179, 144.618
1261.649, 61.925, 146.762
1280.000, 61.673, 147.744
1298.618, 61.296, 149.276
1317.507, 60.952, 151.685
1336.670, 60.716, 154.304
1356.113, 60.532, 157.117
1375.838, 60.411, 160.073
1395.850, 60.344, 163.129
1416.153, 60.307, 166.139
1436.751, 60.356, 168.621
1457.649, 60.338, 171.042
1478.851, 60.434, 174.013
1500.362, 60.616, 176.355
1522.185, 60.795, 178.665
1544.326, 61.029, -179.742
1566.789, 61.303, -178.405
1589.578, 61.542, -178.263
1612.699, 61.626, -177.845
1636.156, 61.771, -177.460
1659.955, 61.904, -177.400
1684.099, 61.929, -178.117
1708.595, 61.797, -177.822
1733.447, 61.737, -177.209
1758.661, 61.632, -176.316
1784.241, 61.574, -174.978
1810.193, 61.556, -173.730
1836.523, 61.530, -172.785
1863.236, 61.501, -171.888
1890.338, 61.451, -170.626
1917.833, 61.397, -169.187
1945.729, 61.357, -167.673
1974.030, 61.367, -165.839
2002.743, 61.387, -164.096
2031.873, 61.401, -162.198
2061.428, 61.578, -158.924
2091.412, 61.936, -158.245
2121.832, 62.113, -158.057
2152.695, 62.202, -157.894
2184.007, 62.213, -157.134
2215.774, 62.234, -156.101
2248.003, 62.287, -154.980
2280.701, 62.385, -153.787
2313.874, 62.491, -152.694
2347.530, 62.630, -151.641
2381.676, 62.756, -151.036
2416.318, 62.836, -150.624
2451.464, 62.873, -150.189
2487.122, 62.884, -149.612
2523.298, 62.811, -148.765
2560.000, 62.721, -146.579
2597.236, 63.007, -144.352
2635.014, 63.185, -144.152
2673.341, 63.260, -143.888
2712.226, 63.223, -143.456
2751.676, 63.164, -142.580
2791.700, 63.073, -141.284
2832.306, 62.973, -139.506
2873.503, 62.900, -137.332
2915.299, 62.833, -134.799
2957.703, 62.816, -131.736
3000.724, 62.839, -128.168
3044.370, 62.950, -124.183
3088.652, 63.165, -119.918
3133.577, 63.505, -115.552
3179.156, 63.958, -111.383
3225.398, 64.517, -107.476
3272.312, 65.140, -103.812
3319.909, 65.866, -100.331
3368.198, 66.719, -97.221
3417.190, 67.676, -95.083
3466.894, 68.660, -93.710
3517.321, 69.653, -92.904
3568.482, 70.714, -92.617
3620.387, 71.829, -92.913
3673.046, 73.069, -94.071
3726.472, 74.419, -97.123
3780.675, 75.719, -102.836
3835.666, 76.651, -110.983
3891.457, 77.092, -118.893
3948.060, 77.390, -125.198
4005.486, 77.667, -131.097
4063.747, 77.915, -137.255
4122.855, 78.010, -143.703
4182.824, 77.865, -149.198
4243.664, 77.964, -151.892
4305.390, 78.503, -157.871
4368.013, 78.658, -167.539
4431.547, 78.224, -177.387
4496.005, 77.369, 174.294
4561.401, 76.264, 167.990
4627.749, 74.999, 163.656
4695.061, 73.629, 161.511
4763.352, 72.224, 162.269
4832.637, 71.076, 165.930
4902.929, 70.325, 170.221
4974.244, 69.704, 174.153
5046.596, 69.153, 178.671
5120.000, 68.692, -176.178
5194.472, 68.313, -169.875
5270.027, 68.169, -161.912
5346.682, 68.492, -152.785
5424.451, 69.436, -144.287
5503.352, 70.872, -139.178
5583.399, 72.457, -138.256
5664.612, 73.833, -141.676
5747.006, 74.617, -147.311
5830.598, 74.885, -151.125
5915.406, 75.242, -152.667
6001.447, 75.691, -154.454
6088.740, 76.255, -154.998
6177.303, 77.275, -157.306
6267.154, 78.143, -163.455
6358.312, 78.643, -170.151
6450.796, 79.057, -177.002
6544.625, 79.325, 174.865
6639.818, 79.210, 165.994
6736.397, 78.684, 158.441
6834.380, 78.022, 153.505
6933.789, 77.522, 150.515
7034.643, 77.238, 147.675
7136.964, 77.046, 144.237
7240.773, 76.882, 139.856
7346.093, 76.568, 134.252
7452.944, 75.940, 128.610
7561.350, 75.070, 124.662
7671.332, 74.160, 122.867
7782.915, 73.389, 123.543
7896.120, 73.156, 125.469
8010.971, 73.341, 124.916
8127.493, 73.521, 121.887
8245.711, 73.724, 117.072
8365.647, 73.742, 108.969
8487.328, 73.203, 99.648
8610.779, 72.348, 91.083
8736.026, 71.105, 79.613
8863.095, 68.798, 74.400
8992.011, 66.846, 74.232
9122.803, 65.429, 74.448
9255.497, 64.035, 71.467
9390.121, 61.845, 65.383
9526.704, 57.745, 59.505
9665.273, 47.488, 75.139
9805.857, 54.303, 177.629
9948.487, 60.843, 168.396
10093.191, 63.542, 148.238
10240.000, 63.206, 132.059
10388.944, 62.373, 126.941
10540.055, 62.147, 122.968
10693.363, 61.809, 116.352
10848.902, 60.954, 108.689
11006.703, 59.606, 101.000
11166.799, 57.748, 93.098
11329.224, 54.758, 82.072
11494.012, 47.110, 66.277
11661.195, 43.708, -134.835
11830.812, 54.717, -152.716
12002.895, 58.785, -176.764
12177.480, 59.819, 158.513
12354.606, 59.261, 137.371
12534.309, 57.252, 118.260
12716.624, 53.960, 106.126
12901.592, 51.190, 100.786
13089.250, 48.277, 81.332
13279.637, 44.399, 35.410
13472.794, 46.177, -26.525
13668.760, 51.617, -61.588
13867.577, 55.344, -90.426
14069.285, 56.926, -118.599
14273.928, 56.065, -146.071
14481.547, 51.846, -167.763
14692.186, 38.911, -136.214
14905.889, 50.926, -64.937
15122.700, 55.471, -79.450
15342.664, 57.439, -89.495
15565.829, 58.606, -98.168
15792.239, 59.248, -104.345
16021.942, 59.995, -108.896
16254.986, 60.924, -115.537
16491.422, 61.075, -124.299
16731.295, 61.132, -129.845
16974.656, 61.403, -136.374
17221.559, 61.324, -147.142
17472.053, 60.127, -155.830
17726.189, 58.848, -160.866
17984.021, 57.181, -163.745
18245.605, 55.339, -157.285
18510.994, 55.220, -145.616
18780.242, 56.029, -139.108
19053.408, 58.305, -144.076
19330.547, 58.459, -162.778
19611.715, 56.887, -176.642
19896.975, 54.365, 173.683
