* Measurement data measured by REW V5.19
* Source: ASIO MOTU M Series, In 1
* Format: 1M Log Swept Sine, 2 sweeps at -3.0 dBFS  With no timing reference
* Dated: 23 Sep, 2020 8:14:16 PM
* REW Settings:
*  C-weighting compensation: Off
*  Target level: 75.0 dB
* Note: ; 
* Measurement: Sep 23 20:14:16
* Smoothing: None
* Frequency Step: 1/48 octave
* Start Frequency: 10.1 Hz
*
* Freq(Hz), SPL(dB), Phase(degrees)
10.145, 76.156, -118.082
10.293, 76.188, -119.157
10.443, 76.219, -120.329
10.595, 76.248, -121.359
10.749, 76.275, -122.372
10.905, 76.302, -123.366
11.064, 76.329, -124.342
11.225, 76.358, -125.308
11.388, 76.389, -126.264
11.554, 76.421, -127.226
11.722, 76.455, -128.193
11.892, 76.489, -129.181
12.065, 76.522, -130.186
12.241, 76.551, -131.212
12.419, 76.576, -132.253
12.599, 76.595, -133.296
12.782, 76.608, -134.332
12.968, 76.613, -135.341
13.157, 76.614, -136.312
13.348, 76.611, -137.235
13.543, 76.607, -138.109
13.740, 76.605, -138.933
13.939, 76.605, -139.726
14.142, 76.609, -140.493
14.348, 76.616, -141.252
14.557, 76.624, -142.007
14.768, 76.632, -142.759
14.983, 76.638, -143.495
15.201, 76.643, -144.203
15.422, 76.649, -144.872
15.646, 76.660, -145.496
15.874, 76.678, -146.094
16.105, 76.708, -146.684
16.339, 76.748, -147.319
16.577, 76.796, -148.030
16.818, 76.846, -148.843
17.063, 76.888, -149.765
17.311, 76.916, -150.759
17.563, 76.927, -151.778
17.818, 76.919, -152.768
18.077, 76.897, -153.666
18.340, 76.872, -154.450
18.607, 76.853, -155.133
18.877, 76.847, -155.756
19.152, 76.858, -156.386
19.431, 76.880, -157.091
19.713, 76.904, -157.901
20.000, 76.922, -158.809
20.291, 76.926, -159.777
20.586, 76.912, -160.747
20.885, 76.884, -161.660
21.189, 76.848, -162.479
21.497, 76.811, -163.195
21.810, 76.781, -163.831
22.127, 76.761, -164.420
22.449, 76.749, -164.994
22.776, 76.746, -165.572
23.107, 76.747, -166.163
23.443, 76.754, -166.776
23.784, 76.766, -167.424
24.130, 76.779, -168.131
24.481, 76.788, -168.906
24.837, 76.787, -169.736
25.198, 76.771, -170.571
25.565, 76.744, -171.359
25.937, 76.715, -172.086
26.314, 76.692, -172.801
26.697, 76.670, -173.579
27.085, 76.636, -174.443
27.479, 76.578, -175.308
27.879, 76.502, -176.042
28.284, 76.435, -176.623
28.696, 76.392, -177.221
29.113, 76.354, -178.071
29.537, 76.261, -179.152
29.966, 76.076, -179.995
30.402, 75.842, -179.967
30.844, 75.698, -178.868
31.293, 75.769, -177.517
31.748, 76.014, -177.122
32.210, 76.261, -178.100
32.678, 76.377, -179.798
33.154, 76.367, 178.654
33.636, 76.330, 177.587
34.125, 76.327, 176.633
34.621, 76.320, 175.435
35.125, 76.256, 174.181
35.636, 76.156, 173.242
36.154, 76.078, 172.553
36.680, 76.018, 171.749
37.214, 75.919, 170.838
37.755, 75.780, 170.237
38.304, 75.667, 170.026
38.861, 75.599, 169.802
39.427, 75.526, 169.499
40.000, 75.455, 169.499
40.582, 75.479, 169.697
41.172, 75.598, 169.280
41.771, 75.688, 167.948
42.379, 75.665, 166.313
42.995, 75.576, 164.934
43.620, 75.469, 163.752
44.255, 75.340, 162.716
44.898, 75.209, 161.992
45.552, 75.126, 161.379
46.214, 75.059, 160.461
46.886, 74.941, 159.409
47.568, 74.795, 158.664
48.260, 74.685, 158.077
48.962, 74.592, 157.220
49.674, 74.452, 156.176
50.397, 74.266, 155.341
51.130, 74.094, 154.779
51.874, 73.958, 154.090
52.628, 73.790, 153.085
53.394, 73.563, 152.323
54.170, 73.381, 151.898
54.958, 73.222, 151.101
55.758, 72.998, 150.535
56.569, 72.892, 150.344
57.391, 72.802, 148.718
58.226, 72.388, 147.359
59.073, 72.075, 148.497
59.932, 72.077, 148.302
60.804, 71.789, 146.758
61.688, 71.417, 147.039
62.586, 71.231, 146.917
63.496, 70.900, 145.917
64.420, 70.426, 145.394
65.357, 69.898, 145.945
66.307, 69.531, 146.879
67.272, 69.054, 146.996
68.250, 68.527, 148.926
69.243, 68.190, 150.501
70.250, 67.760, 152.754
71.272, 67.601, 154.598
72.309, 67.122, 155.363
73.360, 66.645, 158.331
74.427, 66.101, 161.229
75.510, 65.607, 167.479
76.608, 65.533, 174.479
77.723, 65.921, -177.773
78.853, 66.822, -172.763
80.000, 67.939, -171.473
81.164, 68.806, -175.309
82.344, 68.938, 178.400
83.542, 68.200, 173.554
84.757, 67.147, 173.407
85.990, 65.920, 177.658
87.241, 65.526, -171.659
88.510, 66.201, -164.813
89.797, 66.336, -163.304
91.103, 66.398, -154.773
92.428, 67.217, -149.148
93.773, 68.211, -145.607
95.137, 68.799, -141.979
96.520, 69.954, -140.832
97.924, 70.759, -139.922
99.349, 71.439, -141.678
100.794, 72.499, -142.670
102.260, 72.912, -147.705
103.747, 73.398, -151.992
105.256, 73.241, -155.871
106.787, 72.926, -157.617
108.340, 72.926, -154.410
109.916, 73.399, -153.507
111.515, 74.054, -153.283
113.137, 74.661, -155.569
114.783, 74.944, -157.345
116.452, 75.295, -159.651
118.146, 75.458, -162.069
119.865, 75.613, -164.257
121.608, 75.778, -166.536
123.377, 75.935, -168.830
125.171, 76.063, -170.877
126.992, 76.072, -172.131
128.839, 76.147, -174.319
130.713, 76.185, -176.353
132.615, 76.220, -178.713
134.543, 76.304, -179.853
136.500, 76.277, 178.245
138.486, 76.336, 175.987
140.500, 76.266, 174.161
142.544, 76.208, 172.392
144.617, 76.157, 170.266
146.721, 76.163, 168.592
148.855, 76.025, 166.758
151.020, 75.854, 165.048
153.217, 75.554, 162.862
155.445, 75.381, 161.708
157.706, 75.091, 161.385
160.000, 74.870, 160.813
162.327, 74.638, 160.412
164.688, 74.482, 160.219
167.084, 74.436, 161.026
169.514, 74.322, 161.426
171.980, 74.315, 160.801
174.481, 74.304, 160.231
177.019, 74.372, 159.800
179.594, 74.315, 159.502
182.206, 74.275, 158.300
184.856, 74.218, 156.728
187.545, 74.139, 155.719
190.273, 73.981, 154.614
193.041, 73.864, 153.888
195.849, 73.714, 153.274
198.697, 73.515, 152.514
201.587, 73.345, 151.909
204.520, 73.167, 151.573
207.494, 73.063, 151.622
210.512, 72.980, 151.983
213.574, 72.863, 151.589
216.681, 72.802, 150.909
219.833, 72.675, 150.589
223.030, 72.505, 149.922
226.274, 72.337, 149.508
229.565, 72.168, 149.438
232.905, 72.070, 148.712
236.292, 71.894, 148.672
239.729, 71.731, 148.684
243.216, 71.594, 148.637
246.754, 71.405, 148.634
250.343, 71.252, 148.140
253.984, 71.106, 148.212
257.678, 70.909, 147.656
261.426, 70.680, 147.198
265.229, 70.293, 146.314
269.087, 69.384, 146.652
273.001, 68.882, 158.577
276.972, 70.205, 159.315
281.000, 70.417, 156.957
285.088, 70.419, 155.741
289.234, 70.330, 154.915
293.441, 70.269, 154.685
297.710, 70.225, 154.377
302.040, 70.123, 153.782
306.433, 69.999, 153.432
310.890, 69.741, 152.248
315.412, 69.166, 151.987
320.000, 68.593, 156.399
324.655, 69.007, 160.830
329.377, 69.431, 160.525
334.168, 69.544, 158.901
339.028, 69.443, 157.391
343.959, 69.223, 156.076
348.962, 68.700, 155.106
354.038, 67.854, 156.398
359.188, 67.205, 162.116
364.412, 67.309, 168.042
369.713, 67.207, 171.932
375.090, 67.543, 179.540
380.546, 68.540, -177.091
386.081, 69.350, -177.023
391.697, 69.996, -177.488
397.395, 70.493, -178.861
403.175, 70.898, 179.644
409.039, 71.221, 178.184
414.989, 71.513, 176.564
421.025, 71.748, 174.964
427.149, 71.963, 173.267
433.362, 72.114, 171.508
439.665, 72.259, 169.732
446.060, 72.340, 168.037
452.548, 72.428, 166.439
459.131, 72.503, 164.728
465.809, 72.572, 162.940
472.584, 72.604, 160.946
479.458, 72.586, 158.901
486.432, 72.537, 156.945
493.507, 72.455, 155.093
500.686, 72.339, 153.348
507.968, 72.206, 151.714
515.357, 72.054, 150.299
522.853, 71.897, 149.009
530.458, 71.769, 147.647
538.174, 71.603, 145.809
546.002, 71.180, 144.595
553.943, 71.055, 146.156
562.001, 71.193, 144.860
570.175, 71.084, 142.674
578.469, 70.896, 140.995
586.883, 70.617, 138.944
595.419, 70.249, 137.297
604.080, 69.854, 136.294
612.866, 69.426, 135.624
621.780, 68.996, 135.456
630.824, 68.593, 135.810
640.000, 68.162, 136.129
649.309, 67.724, 136.935
658.753, 67.356, 139.193
668.335, 67.156, 141.087
678.056, 67.013, 142.769
687.919, 66.954, 143.696
697.925, 66.741, 144.347
708.076, 66.498, 144.895
718.376, 66.157, 146.689
728.825, 65.848, 149.342
739.426, 65.616, 153.300
750.181, 65.790, 158.675
761.093, 66.433, 162.447
772.163, 67.158, 162.487
783.394, 67.633, 160.725
794.789, 67.869, 158.554
806.349, 67.964, 156.554
818.078, 67.948, 154.708
829.977, 67.864, 153.348
842.050, 67.783, 152.336
854.297, 67.716, 151.473
866.724, 67.667, 150.630
879.330, 67.569, 149.247
892.120, 67.415, 148.109
905.097, 67.216, 147.043
918.262, 66.959, 146.054
931.618, 66.705, 145.493
945.169, 66.395, 145.166
958.917, 66.151, 145.195
972.864, 65.876, 145.056
987.015, 65.611, 145.570
1001.371, 65.332, 146.129
1015.937, 65.110, 146.820
1030.714, 64.850, 147.377
1045.706, 64.641, 148.054
1060.916, 64.448, 149.118
1076.347, 64.272, 149.671
1092.003, 64.131, 150.699
1107.887, 63.910, 150.842
1124.001, 63.692, 152.096
1140.350, 63.546, 152.554
1156.937, 63.383, 153.030
1173.765, 63.097, 153.746
1190.838, 62.687, 154.870
1208.159, 62.383, 156.349
1225.732, 62.098, 158.235
1243.561, 61.844, 161.003
1261.649, 61.676, 164.244
1280.000, 61.569, 166.410
1298.618, 61.389, 168.890
1317.507, 61.298, 171.931
1336.670, 61.236, 175.806
1356.113, 61.452, 179.612
1375.838, 61.742, -177.031
1395.850, 62.144, -175.061
1416.153, 62.510, -174.054
1436.751, 62.774, -173.865
1457.649, 62.894, -173.777
1478.851, 62.990, -173.155
1500.362, 63.072, -172.566
1522.185, 63.152, -171.356
1544.326, 63.373, -170.355
1566.789, 63.407, -170.798
1589.578, 63.168, -169.678
1612.699, 63.278, -166.512
1636.156, 63.593, -164.435
1659.955, 63.957, -163.648
1684.099, 64.286, -163.181
1708.595, 64.562, -163.121
1733.447, 64.886, -163.392
1758.661, 65.135, -164.275
1784.241, 65.353, -165.560
1810.193, 65.409, -167.085
1836.523, 65.427, -168.301
1863.236, 65.352, -169.089
1890.338, 65.295, -169.784
1917.833, 65.158, -170.437
1945.729, 65.036, -170.258
1974.030, 64.916, -170.009
2002.743, 64.810, -169.469
2031.873, 64.724, -168.368
2061.428, 64.831, -167.498
2091.412, 64.852, -167.561
2121.832, 64.821, -167.423
2152.695, 64.804, -167.121
2184.007, 64.782, -167.053
2215.774, 64.729, -167.178
2248.003, 64.555, -167.431
2280.701, 64.251, -166.585
2313.874, 64.096, -163.987
2347.530, 64.206, -162.439
2381.676, 64.180, -161.781
2416.318, 64.007, -160.359
2451.464, 64.128, -156.387
2487.122, 64.503, -156.028
2523.298, 64.600, -155.978
2560.000, 64.635, -155.616
2597.236, 64.664, -155.065
2635.014, 64.674, -154.343
2673.341, 64.679, -153.441
2712.226, 64.689, -152.541
2751.676, 64.709, -151.509
2791.700, 64.739, -150.534
2832.306, 64.759, -149.560
2873.503, 64.778, -148.580
2915.299, 64.761, -147.404
2957.703, 64.734, -145.990
3000.724, 64.724, -144.295
3044.370, 64.717, -142.567
3088.652, 64.728, -140.594
3133.577, 64.727, -138.276
3179.156, 64.753, -135.552
3225.398, 64.815, -132.297
3272.312, 64.956, -128.328
3319.909, 65.275, -123.844
3368.198, 65.814, -119.646
3417.190, 66.506, -116.454
3466.894, 67.250, -114.284
3517.321, 67.993, -112.771
3568.482, 68.732, -111.845
3620.387, 69.511, -111.544
3673.046, 70.288, -112.123
3726.472, 70.957, -113.522
3780.675, 71.429, -115.270
3835.666, 71.836, -114.579
3891.457, 72.541, -114.478
3948.060, 73.310, -114.109
4005.486, 74.443, -115.580
4063.747, 75.392, -120.069
4122.855, 75.981, -124.962
4182.824, 76.381, -128.340
4243.664, 77.096, -130.243
4305.390, 78.291, -134.587
4368.013, 79.325, -143.986
4431.547, 79.749, -155.813
4496.005, 79.629, -167.229
4561.401, 79.126, -178.305
4627.749, 78.090, 172.770
4695.061, 77.030, 166.055
4763.352, 75.790, 160.756
4832.637, 74.390, 157.108
4902.929, 72.822, 155.864
4974.244, 71.241, 157.321
5046.596, 69.680, 161.702
5120.000, 68.212, 169.844
5194.472, 67.275, -177.007
5270.027, 67.502, -161.683
5346.682, 68.701, -150.576
5424.451, 70.091, -143.884
5503.352, 71.870, -140.178
5583.399, 73.434, -143.259
5664.612, 74.298, -146.100
5747.006, 75.480, -147.588
5830.598, 76.863, -155.488
5915.406, 76.990, -167.395
6001.447, 76.263, -172.527
6088.740, 76.016, -173.640
6177.303, 75.981, -174.464
6267.154, 76.236, -175.061
6358.312, 76.614, -177.590
6450.796, 76.845, 179.171
6544.625, 77.105, 175.698
6639.818, 77.243, 171.094
6736.397, 77.230, 166.835
6834.380, 77.128, 162.546
6933.789, 76.869, 159.027
7034.643, 76.650, 157.322
7136.964, 76.751, 156.199
7240.773, 77.179, 153.344
7346.093, 77.556, 147.014
7452.944, 77.469, 138.824
7561.350, 76.869, 131.468
7671.332, 76.084, 127.093
7782.915, 75.434, 124.354
7896.120, 74.957, 122.767
8010.971, 74.792, 122.052
8127.493, 75.194, 116.953
8245.711, 75.121, 108.336
8365.647, 74.380, 97.105
8487.328, 72.764, 89.262
8610.779, 71.320, 86.602
8736.026, 70.175, 81.471
8863.095, 68.124, 79.627
8992.011, 66.370, 81.284
9122.803, 64.975, 87.108
9255.497, 64.373, 92.605
9390.121, 64.058, 94.286
9526.704, 63.686, 95.019
9665.273, 63.544, 91.691
9805.857, 62.695, 81.925
9948.487, 60.615, 68.530
10093.191, 56.784, 41.474
10240.000, 53.772, -77.998
10388.944, 62.110, -156.060
10540.055, 64.161, 165.177
10693.363, 63.805, 144.954
10848.902, 63.057, 131.797
11006.703, 61.448, 121.021
11166.799, 58.857, 116.542
11329.224, 55.648, 127.627
11494.012, 55.600, 156.078
11661.195, 58.931, 163.184
11830.812, 60.402, 154.732
12002.895, 60.874, 148.899
12177.480, 61.664, 142.282
12354.606, 62.237, 129.110
12534.309, 61.768, 111.880
12716.624, 60.393, 96.273
12901.592, 58.772, 79.285
13089.250, 56.842, 60.872
13279.637, 55.228, 36.486
13472.794, 54.557, 3.726
13668.760, 55.977, -37.215
13867.577, 57.242, -81.984
14069.285, 56.754, -121.103
14273.928, 54.116, -150.683
14481.547, 48.330, 179.405
14692.186, 40.719, 8.163
14905.889, 53.380, -35.340
15122.700, 57.787, -57.117
15342.664, 59.987, -72.647
15565.829, 61.271, -85.152
15792.239, 62.197, -93.300
16021.942, 63.413, -99.523
16254.986, 65.087, -110.339
16491.422, 65.901, -127.671
16731.295, 65.857, -146.205
16974.656, 63.888, -164.619
17221.559, 61.154, -167.520
17472.053, 59.795, -162.289
17726.189, 58.983, -160.631
17984.021, 58.535, -154.009
18245.605, 58.988, -150.947
18510.994, 59.648, -150.763
18780.242, 60.988, -155.472
19053.408, 61.555, -172.298
19330.547, 59.675, 170.536
19611.715, 57.314, 166.671
19896.975, 55.724, 165.994
