* Measurement data measured by REW V5.19
* Source: In 1-2 (MOTU M Series), no input selected, L, volume: no control
* Format: 1M Log Swept Sine, 1 sweep at -3.0 dBFS  With no timing reference
* Dated: 10 Dec, 2021 10:20:33 PM
* REW Settings:
*  C-weighting compensation: Off
*  Target level: 75.0 dB
* Note: ; 
* Measurement: Dec 10 22:20:33
* Smoothing: 1/48 octave
* Frequency Step: 1/48 octave
* Start Frequency: 10.1 Hz
*
* Freq(Hz), SPL(dB), Phase(degrees)
10.145, 77.832, 34.837
10.293, 77.807, 34.094
10.443, 77.780, 33.100
10.595, 77.737, 31.804
10.749, 77.691, 30.458
10.905, 77.655, 29.444
11.064, 77.622, 28.550
11.225, 77.584, 27.532
11.388, 77.543, 26.465
11.554, 77.502, 25.446
11.722, 77.460, 24.459
11.892, 77.418, 23.494
12.065, 77.376, 22.547
12.241, 77.332, 21.594
12.419, 77.287, 20.645
12.599, 77.243, 19.734
12.782, 77.198, 18.843
12.968, 77.152, 17.950
13.157, 77.105, 17.071
13.348, 77.058, 16.217
13.543, 77.011, 15.378
13.740, 76.964, 14.551
13.939, 76.917, 13.739
14.142, 76.869, 12.940
14.348, 76.823, 12.151
14.557, 76.775, 11.368
14.768, 76.728, 10.589
14.983, 76.679, 9.817
15.201, 76.627, 9.052
15.422, 76.574, 8.297
15.646, 76.518, 7.562
15.874, 76.459, 6.850
16.105, 76.400, 6.164
16.339, 76.340, 5.506
16.577, 76.280, 4.872
16.818, 76.222, 4.259
17.063, 76.164, 3.659
17.311, 76.106, 3.072
17.563, 76.049, 2.500
17.818, 75.990, 1.948
18.077, 75.932, 1.425
18.340, 75.876, 0.935
18.607, 75.825, 0.476
18.877, 75.780, 0.038
19.152, 75.742, -0.400
19.431, 75.713, -0.863
19.713, 75.688, -1.370
20.000, 75.665, -1.928
20.291, 75.640, -2.535
20.586, 75.611, -3.179
20.885, 75.576, -3.841
21.189, 75.535, -4.507
21.497, 75.490, -5.168
21.810, 75.441, -5.820
22.127, 75.389, -6.464
22.449, 75.332, -7.096
22.776, 75.272, -7.708
23.107, 75.207, -8.291
23.443, 75.141, -8.839
23.784, 75.074, -9.353
24.130, 75.007, -9.840
24.481, 74.942, -10.311
24.837, 74.877, -10.770
25.198, 74.811, -11.216
25.565, 74.744, -11.648
25.937, 74.676, -12.064
26.314, 74.609, -12.467
26.697, 74.540, -12.856
27.085, 74.470, -13.226
27.479, 74.400, -13.569
27.879, 74.330, -13.877
28.284, 74.264, -14.156
28.696, 74.203, -14.418
29.113, 74.148, -14.682
29.537, 74.096, -14.955
29.966, 74.046, -15.239
30.402, 73.999, -15.535
30.844, 73.954, -15.846
31.293, 73.909, -16.179
31.748, 73.863, -16.534
32.210, 73.813, -16.901
32.678, 73.759, -17.264
33.154, 73.703, -17.613
33.636, 73.645, -17.947
34.125, 73.587, -18.272
34.621, 73.528, -18.594
35.125, 73.465, -18.909
35.636, 73.400, -19.206
36.154, 73.333, -19.470
36.680, 73.267, -19.705
37.214, 73.202, -19.927
37.755, 73.137, -20.135
38.304, 73.071, -20.311
38.861, 73.008, -20.440
39.427, 72.951, -20.532
40.000, 72.900, -20.609
40.582, 72.854, -20.670
41.172, 72.815, -20.693
41.771, 72.790, -20.679
42.379, 72.789, -20.690
42.995, 72.808, -20.820
43.620, 72.839, -21.147
44.255, 72.865, -21.700
44.898, 72.871, -22.459
45.552, 72.842, -23.346
46.214, 72.775, -24.237
46.886, 72.676, -25.016
47.568, 72.561, -25.641
48.260, 72.440, -26.138
48.962, 72.316, -26.540
49.674, 72.188, -26.853
50.397, 72.060, -27.081
51.130, 71.934, -27.237
51.874, 71.807, -27.331
52.628, 71.680, -27.348
53.394, 71.557, -27.276
54.170, 71.442, -27.147
54.958, 71.329, -26.980
55.758, 71.218, -26.721
56.569, 71.117, -26.377
57.391, 71.024, -25.979
58.226, 70.938, -25.464
59.073, 70.876, -24.867
59.932, 70.831, -24.279
60.804, 70.800, -23.626
61.688, 70.803, -22.977
62.586, 70.825, -22.485
63.496, 70.851, -22.039
64.420, 70.899, -21.635
65.357, 70.962, -21.408
66.307, 71.024, -21.289
67.272, 71.095, -21.282
68.250, 71.159, -21.446
69.243, 71.210, -21.635
70.250, 71.267, -21.867
71.272, 71.319, -22.222
72.309, 71.364, -22.639
73.360, 71.404, -23.164
74.427, 71.425, -23.787
75.510, 71.429, -24.418
76.608, 71.419, -25.080
77.723, 71.392, -25.717
78.853, 71.358, -26.326
80.000, 71.306, -26.929
81.164, 71.244, -27.416
82.344, 71.181, -27.860
83.542, 71.109, -28.216
84.757, 71.044, -28.499
85.990, 70.978, -28.773
87.241, 70.910, -28.970
88.510, 70.847, -29.093
89.797, 70.798, -29.183
91.103, 70.753, -29.298
92.428, 70.710, -29.391
93.773, 70.671, -29.467
95.137, 70.639, -29.528
96.520, 70.617, -29.613
97.924, 70.598, -29.758
99.349, 70.582, -29.907
100.794, 70.572, -30.097
102.260, 70.564, -30.305
103.747, 70.561, -30.581
105.256, 70.554, -30.897
106.787, 70.547, -31.245
108.340, 70.541, -31.620
109.916, 70.535, -32.048
111.515, 70.526, -32.536
113.137, 70.513, -33.079
114.783, 70.491, -33.665
116.452, 70.468, -34.266
118.146, 70.440, -34.926
119.865, 70.406, -35.643
121.608, 70.358, -36.475
123.377, 70.293, -37.352
125.171, 70.212, -38.330
126.992, 70.094, -39.400
128.839, 69.912, -40.404
130.713, 69.668, -40.899
132.615, 69.453, -40.677
134.543, 69.336, -40.278
136.500, 69.269, -40.195
138.486, 69.202, -40.378
140.500, 69.119, -40.705
142.544, 69.016, -41.069
144.617, 68.900, -41.412
146.721, 68.769, -41.708
148.855, 68.627, -41.919
151.020, 68.477, -42.043
153.217, 68.325, -42.083
155.445, 68.168, -42.029
157.706, 68.016, -41.847
160.000, 67.865, -41.558
162.327, 67.722, -41.152
164.688, 67.590, -40.684
167.084, 67.472, -40.139
169.514, 67.371, -39.544
171.980, 67.288, -38.904
174.481, 67.222, -38.260
177.019, 67.176, -37.634
179.594, 67.146, -37.080
182.206, 67.123, -36.595
184.856, 67.106, -36.172
187.545, 67.083, -35.819
190.273, 67.055, -35.486
193.041, 67.026, -35.141
195.849, 67.000, -34.602
198.697, 67.013, -33.886
201.587, 67.075, -33.276
204.520, 67.176, -32.971
207.494, 67.287, -33.002
210.512, 67.388, -33.304
213.574, 67.470, -33.865
216.681, 67.526, -34.595
219.833, 67.554, -35.431
223.030, 67.556, -36.374
226.274, 67.529, -37.417
229.565, 67.471, -38.469
232.905, 67.379, -39.455
236.292, 67.263, -40.405
239.729, 67.124, -41.285
243.216, 66.959, -42.108
246.754, 66.758, -42.868
250.343, 66.518, -43.389
253.984, 66.255, -43.482
257.678, 66.021, -43.163
261.426, 65.837, -42.807
265.229, 65.660, -42.523
269.087, 65.475, -42.179
273.001, 65.284, -41.728
276.972, 65.095, -41.117
281.000, 64.914, -40.327
285.088, 64.754, -39.416
289.234, 64.616, -38.417
293.441, 64.498, -37.351
297.710, 64.402, -36.268
302.040, 64.322, -35.164
306.433, 64.257, -34.064
310.890, 64.214, -32.946
315.412, 64.194, -31.884
320.000, 64.183, -30.860
324.655, 64.184, -29.885
329.377, 64.193, -28.980
334.168, 64.215, -28.071
339.028, 64.251, -27.227
343.959, 64.302, -26.489
348.962, 64.350, -25.857
354.038, 64.402, -25.334
359.188, 64.451, -24.865
364.412, 64.496, -24.444
369.713, 64.545, -24.101
375.090, 64.582, -23.754
380.546, 64.628, -23.449
386.081, 64.676, -23.239
391.697, 64.713, -23.083
397.395, 64.742, -22.992
403.175, 64.757, -22.912
409.039, 64.765, -22.800
414.989, 64.769, -22.687
421.025, 64.768, -22.519
427.149, 64.764, -22.376
433.362, 64.760, -22.197
439.665, 64.745, -22.014
446.060, 64.725, -21.756
452.548, 64.707, -21.446
459.131, 64.694, -21.123
465.809, 64.674, -20.747
472.584, 64.662, -20.276
479.458, 64.656, -19.764
486.432, 64.664, -19.190
493.507, 64.688, -18.607
500.686, 64.722, -18.076
507.968, 64.759, -17.580
515.357, 64.807, -17.105
522.853, 64.863, -16.674
530.458, 64.917, -16.270
538.174, 64.968, -15.885
546.002, 65.024, -15.558
553.943, 65.085, -15.213
562.001, 65.149, -14.874
570.175, 65.218, -14.539
578.469, 65.293, -14.235
586.883, 65.372, -13.973
595.419, 65.455, -13.731
604.080, 65.548, -13.522
612.866, 65.646, -13.390
621.780, 65.748, -13.340
630.824, 65.849, -13.364
640.000, 65.949, -13.464
649.309, 66.042, -13.639
658.753, 66.133, -13.866
668.335, 66.218, -14.153
678.056, 66.298, -14.484
687.919, 66.374, -14.893
697.925, 66.440, -15.360
708.076, 66.494, -15.890
718.376, 66.538, -16.461
728.825, 66.562, -17.078
739.426, 66.571, -17.700
750.181, 66.558, -18.311
761.093, 66.528, -18.873
772.163, 66.487, -19.379
783.394, 66.431, -19.859
794.789, 66.359, -20.235
806.349, 66.277, -20.516
818.078, 66.181, -20.729
829.977, 66.067, -20.789
842.050, 65.944, -20.683
854.297, 65.812, -20.361
866.724, 65.680, -19.744
879.330, 65.568, -18.841
892.120, 65.494, -17.646
905.097, 65.483, -16.310
918.262, 65.538, -15.101
931.618, 65.633, -14.161
945.169, 65.736, -13.546
958.917, 65.831, -13.165
972.864, 65.904, -12.894
987.015, 65.959, -12.639
1001.371, 66.010, -12.384
1015.937, 66.055, -12.143
1030.714, 66.092, -11.893
1045.706, 66.125, -11.663
1060.916, 66.143, -11.386
1076.347, 66.152, -11.010
1092.003, 66.172, -10.499
1107.887, 66.205, -9.948
1124.001, 66.251, -9.369
1140.350, 66.315, -8.836
1156.937, 66.393, -8.360
1173.765, 66.476, -7.960
1190.838, 66.559, -7.658
1208.159, 66.639, -7.426
1225.732, 66.715, -7.275
1243.561, 66.780, -7.173
1261.649, 66.834, -7.133
1280.000, 66.874, -7.132
1298.618, 66.894, -7.156
1317.507, 66.886, -7.140
1336.670, 66.853, -7.034
1356.113, 66.794, -6.746
1375.838, 66.718, -6.198
1395.850, 66.640, -5.283
1416.153, 66.586, -4.043
1436.751, 66.575, -2.519
1457.649, 66.628, -0.845
1478.851, 66.742, 0.825
1500.362, 66.912, 2.390
1522.185, 67.143, 3.627
1544.326, 67.402, 4.424
1566.789, 67.657, 4.695
1589.578, 67.853, 4.675
1612.699, 68.004, 4.526
1636.156, 68.096, 4.371
1659.955, 68.137, 4.515
1684.099, 68.172, 5.105
1708.595, 68.246, 6.129
1733.447, 68.397, 7.247
1758.661, 68.612, 8.001
1784.241, 68.817, 8.317
1810.193, 68.978, 8.503
1836.523, 69.120, 8.850
1863.236, 69.268, 9.449
1890.338, 69.458, 9.956
1917.833, 69.672, 10.205
1945.729, 69.862, 10.183
1974.030, 70.008, 10.046
2002.743, 70.110, 10.030
2031.873, 70.177, 10.392
2061.428, 70.256, 11.166
2091.412, 70.388, 12.336
2121.832, 70.605, 13.592
2152.695, 70.884, 14.556
2184.007, 71.183, 15.223
2215.774, 71.494, 15.771
2248.003, 71.823, 16.120
2280.701, 72.159, 16.073
2313.874, 72.466, 15.860
2347.530, 72.758, 15.691
2381.676, 73.065, 15.545
2416.318, 73.398, 15.276
2451.464, 73.743, 14.759
2487.122, 74.062, 14.157
2523.298, 74.403, 13.427
2560.000, 74.759, 12.426
2597.236, 75.100, 11.106
2635.014, 75.418, 9.645
2673.341, 75.736, 7.947
2712.226, 76.035, 5.862
2751.676, 76.290, 3.422
2791.700, 76.461, 0.822
2832.306, 76.543, -1.702
2873.503, 76.548, -4.177
2915.299, 76.482, -6.506
2957.703, 76.352, -8.619
3000.724, 76.178, -10.406
3044.370, 75.985, -11.868
3088.652, 75.776, -13.062
3133.577, 75.561, -14.060
3179.156, 75.324, -14.913
3225.398, 75.071, -15.650
3272.312, 74.815, -16.157
3319.909, 74.551, -16.426
3368.198, 74.281, -16.436
3417.190, 74.010, -16.145
3466.894, 73.741, -15.560
3517.321, 73.487, -14.656
3568.482, 73.267, -13.424
3620.387, 73.102, -12.026
3673.046, 73.001, -10.665
3726.472, 72.923, -9.404
3780.675, 72.886, -8.341
3835.666, 72.869, -7.568
3891.457, 72.844, -7.081
3948.060, 72.790, -6.810
4005.486, 72.703, -6.751
4063.747, 72.549, -6.752
4122.855, 72.341, -6.646
4182.824, 72.078, -6.303
4243.664, 71.768, -5.646
4305.390, 71.417, -4.516
4368.013, 71.061, -2.769
4431.547, 70.729, -0.471
4496.005, 70.409, 2.424
4561.401, 70.175, 6.171
4627.749, 70.151, 10.431
4695.061, 70.367, 14.057
4763.352, 70.701, 16.191
4832.637, 70.990, 16.675
4902.929, 71.121, 16.028
4974.244, 71.045, 14.975
5046.596, 70.785, 14.107
5120.000, 70.374, 13.897
5194.472, 69.866, 14.652
5270.027, 69.330, 16.437
5346.682, 68.817, 19.127
5424.451, 68.383, 22.437
5503.352, 68.054, 25.883
5583.399, 67.721, 29.155
5664.612, 67.352, 32.459
5747.006, 66.953, 36.200
5830.598, 66.549, 40.508
5915.406, 66.158, 45.476
6001.447, 65.832, 51.323
6088.740, 65.657, 57.979
6177.303, 65.723, 64.945
6267.154, 66.069, 71.341
6358.312, 66.641, 76.049
6450.796, 67.263, 78.156
6544.625, 67.691, 77.673
6639.818, 67.724, 75.611
6736.397, 67.312, 73.697
6834.380, 66.567, 73.312
6933.789, 65.657, 74.995
7034.643, 64.728, 78.649
7136.964, 63.871, 83.864
7240.773, 63.138, 90.067
7346.093, 62.530, 96.624
7452.944, 61.946, 103.479
7561.350, 61.409, 110.857
7671.332, 60.959, 118.911
7782.915, 60.639, 127.417
7896.120, 60.473, 135.974
8010.971, 60.434, 143.999
8127.493, 60.418, 151.119
8245.711, 60.285, 157.710
8365.647, 60.000, 164.883
8487.328, 59.666, 173.752
8610.779, 59.596, -175.285
8736.026, 60.180, -164.633
8863.095, 60.963, -159.527
8992.011, 61.097, -155.633
9122.803, 61.161, -151.388
9255.497, 60.989, -147.641
9390.121, 60.510, -143.248
9526.704, 59.802, -136.919
9665.273, 59.042, -127.973
9805.857, 58.429, -116.392
9948.487, 58.160, -102.779
10093.191, 58.372, -88.393
10240.000, 59.096, -74.421
10388.944, 60.351, -62.046
10540.055, 62.126, -53.232
10693.363, 64.063, -50.906
10848.902, 65.394, -55.917
11006.703, 65.584, -63.914
11166.799, 64.783, -69.393
11329.224, 63.497, -71.055
11494.012, 61.927, -70.072
11661.195, 59.893, -65.329
11830.812, 57.558, -52.680
12002.895, 56.140, -30.370
12177.480, 56.966, -9.161
12354.606, 58.487, 1.316
12534.309, 59.474, 4.135
12716.624, 59.685, 3.603
12901.592, 59.119, 3.091
13089.250, 57.985, 5.024
13279.637, 56.600, 10.077
13472.794, 55.144, 17.514
13668.760, 53.616, 27.156
13867.577, 52.031, 40.224
14069.285, 50.725, 57.928
14273.928, 50.410, 78.343
14481.547, 51.230, 94.972
14692.186, 52.175, 103.632
14905.889, 52.385, 107.315
15122.700, 51.820, 110.809
15342.664, 50.738, 116.422
15565.829, 49.392, 124.744
15792.239, 47.938, 134.783
16021.942, 46.186, 145.941
16254.986, 43.646, 161.956
16491.422, 40.452, -161.932
16731.295, 43.610, -103.968
16974.656, 50.844, -77.972
17221.559, 55.497, -90.496
17472.053, 56.469, -114.390
17726.189, 55.177, -125.793
17984.021, 53.829, -125.335
18245.605, 53.236, -121.349
18510.994, 53.280, -118.123
18780.242, 53.826, -118.580
19053.408, 54.512, -125.574
19330.547, 54.655, -140.056
19611.715, 53.555, -158.518
19896.975, 51.424, -172.421
