* Measurement data measured by REW V5.19
* Source: ASIO MOTU M Series, In 1
* Format: 512k Log Swept Sine, 2 sweeps at -10.0 dBFS  With no timing reference
* Dated: 10 Sep, 2020 7:14:08 PM
* REW Settings:
*  C-weighting compensation: Off
*  Target level: 75.0 dB
* Note: ; 
* Measurement: Sep 10 19:14:08
* Smoothing: None
* Frequency Step: 1/48 octave
* Start Frequency: 10.1 Hz
*
* Freq(Hz), SPL(dB), Phase(degrees)
10.145, 67.881, -50.215
10.293, 68.021, -51.594
10.443, 68.162, -53.119
10.595, 68.300, -54.498
10.749, 68.433, -55.886
10.905, 68.561, -57.292
11.064, 68.684, -58.706
11.225, 68.798, -60.115
11.388, 68.904, -61.514
11.554, 69.002, -62.872
11.722, 69.094, -64.189
11.892, 69.182, -65.439
12.065, 69.268, -66.625
12.241, 69.358, -67.750
12.419, 69.453, -68.824
12.599, 69.556, -69.878
12.782, 69.666, -70.926
12.968, 69.781, -72.002
13.157, 69.898, -73.103
13.348, 70.012, -74.241
13.543, 70.121, -75.380
13.740, 70.224, -76.509
13.939, 70.322, -77.574
14.142, 70.420, -78.572
14.348, 70.524, -79.478
14.557, 70.644, -80.341
14.768, 70.783, -81.187
14.983, 70.940, -82.114
15.201, 71.109, -83.167
15.422, 71.281, -84.392
15.646, 71.437, -85.776
15.874, 71.569, -87.254
16.105, 71.670, -88.755
16.339, 71.742, -90.132
16.577, 71.801, -91.324
16.818, 71.859, -92.293
17.063, 71.943, -93.085
17.311, 72.062, -93.866
17.563, 72.208, -94.767
17.818, 72.369, -95.919
18.077, 72.509, -97.352
18.340, 72.603, -98.926
18.607, 72.644, -100.441
18.877, 72.639, -101.679
19.152, 72.620, -102.448
19.431, 72.643, -102.760
19.713, 72.747, -102.900
20.000, 72.932, -103.247
20.291, 73.165, -104.121
20.586, 73.384, -105.635
20.885, 73.531, -107.620
21.189, 73.575, -109.691
21.497, 73.528, -111.399
21.810, 73.448, -112.446
22.127, 73.410, -112.862
22.449, 73.469, -113.041
22.776, 73.618, -113.520
23.107, 73.795, -114.636
23.443, 73.921, -116.330
23.784, 73.948, -118.213
24.130, 73.878, -119.779
24.481, 73.769, -120.667
24.837, 73.701, -120.879
25.198, 73.729, -120.805
25.565, 73.846, -120.953
25.937, 73.996, -121.595
26.314, 74.121, -122.648
26.697, 74.194, -123.816
27.085, 74.232, -124.835
27.479, 74.271, -125.641
27.879, 74.334, -126.381
28.284, 74.416, -127.248
28.696, 74.490, -128.304
29.113, 74.533, -129.430
29.537, 74.551, -130.427
29.966, 74.575, -131.224
30.402, 74.632, -131.975
30.844, 74.715, -132.960
31.293, 74.773, -134.276
31.748, 74.762, -135.665
32.210, 74.693, -136.666
32.678, 74.640, -137.043
33.154, 74.682, -137.117
33.636, 74.815, -137.552
34.125, 74.949, -138.652
34.621, 75.008, -140.099
35.125, 74.988, -141.329
35.636, 74.950, -142.070
36.154, 74.956, -142.474
36.680, 75.021, -142.888
37.214, 75.123, -143.591
37.755, 75.220, -144.707
38.304, 75.263, -146.143
38.861, 75.228, -147.522
39.427, 75.152, -148.454
40.000, 75.112, -148.944
40.582, 75.144, -149.485
41.172, 75.195, -150.438
41.771, 75.201, -151.622
42.379, 75.168, -152.598
42.995, 75.160, -153.285
43.620, 75.201, -154.077
44.255, 75.236, -155.180
44.898, 75.229, -156.288
45.552, 75.219, -157.174
46.214, 75.231, -158.125
46.886, 75.207, -159.254
47.568, 75.132, -160.091
48.260, 75.087, -160.505
48.962, 75.097, -161.040
49.674, 75.093, -161.848
50.397, 75.061, -162.607
51.130, 75.035, -163.314
51.874, 75.003, -164.089
52.628, 74.954, -164.831
53.394, 74.899, -165.423
54.170, 74.864, -165.831
54.958, 74.871, -166.283
55.758, 74.875, -166.968
56.569, 74.842, -167.506
57.391, 74.839, -167.635
58.226, 74.923, -167.781
59.073, 75.047, -168.512
59.932, 75.109, -169.700
60.804, 75.115, -170.770
61.688, 75.129, -171.828
62.586, 75.127, -173.199
63.496, 75.050, -174.778
64.420, 74.900, -175.864
65.357, 74.840, -176.478
66.307, 74.809, -177.826
67.272, 74.665, -178.914
68.250, 74.580, -179.528
69.243, 74.478, 179.671
70.250, 74.353, 179.116
71.272, 74.186, 178.820
72.309, 74.125, 178.943
73.360, 74.049, 177.715
74.427, 73.795, 177.299
75.510, 73.727, 177.140
76.608, 73.590, 176.451
77.723, 73.513, 176.198
78.853, 73.311, 175.543
80.000, 73.104, 177.086
81.164, 73.221, 177.690
82.344, 73.044, 176.871
83.542, 72.823, 177.764
84.757, 72.716, 177.763
85.990, 72.561, 178.573
87.241, 72.651, 178.390
88.510, 72.571, 178.653
89.797, 72.757, 178.698
91.103, 72.703, 178.559
92.428, 72.727, 179.232
93.773, 72.737, 179.264
95.137, 72.581, -179.811
96.520, 72.784, -179.379
97.924, 72.778, -179.762
99.349, 72.712, 179.809
100.794, 72.844, -178.346
102.260, 72.885, -179.193
103.747, 72.880, -178.201
105.256, 73.021, -177.374
106.787, 73.015, -178.965
108.340, 73.138, -178.254
109.916, 73.111, -178.780
111.515, 73.431, -178.704
113.137, 73.508, -178.716
114.783, 73.641, -179.388
116.452, 73.722, -179.110
118.146, 73.899, -179.824
119.865, 74.081, 178.678
121.608, 74.233, 177.280
123.377, 74.283, 175.258
125.171, 74.409, 173.801
126.992, 74.389, 168.846
128.839, 73.644, 164.606
130.713, 72.914, 166.794
132.615, 73.167, 172.557
134.543, 73.204, 172.781
136.500, 73.605, 176.900
138.486, 73.463, 173.035
140.500, 73.437, 174.633
142.544, 74.074, 172.549
144.617, 74.230, 171.704
146.721, 73.882, 171.670
148.855, 73.972, 170.315
151.020, 74.199, 170.846
153.217, 73.976, 169.971
155.445, 74.455, 167.952
157.706, 74.396, 167.691
160.000, 74.401, 165.282
162.327, 74.457, 165.021
164.688, 74.489, 163.669
167.084, 74.499, 163.013
169.514, 74.475, 161.802
171.980, 74.539, 160.548
174.481, 74.529, 159.429
177.019, 74.563, 158.554
179.594, 74.504, 157.432
182.206, 74.470, 154.489
184.856, 74.411, 153.045
187.545, 74.288, 151.944
190.273, 74.104, 151.918
193.041, 73.965, 152.565
195.849, 74.069, 149.626
198.697, 74.143, 147.504
201.587, 74.042, 145.570
204.520, 73.663, 143.938
207.494, 73.418, 143.704
210.512, 73.197, 142.999
213.574, 73.159, 142.301
216.681, 73.021, 141.355
219.833, 72.891, 140.261
223.030, 72.788, 139.452
226.274, 72.663, 138.005
229.565, 72.419, 136.809
232.905, 72.284, 134.661
236.292, 72.110, 134.376
239.729, 71.880, 132.634
243.216, 71.560, 131.622
246.754, 71.277, 130.450
250.343, 71.033, 129.785
253.984, 70.661, 128.961
257.678, 70.261, 128.367
261.426, 70.214, 128.575
265.229, 69.693, 128.168
269.087, 69.372, 127.303
273.001, 69.042, 128.311
276.972, 68.756, 128.450
281.000, 68.397, 129.421
285.088, 68.056, 128.977
289.234, 67.889, 128.654
293.441, 67.773, 129.423
297.710, 67.487, 130.031
302.040, 67.090, 132.527
306.433, 66.397, 132.908
310.890, 66.337, 131.937
315.412, 66.044, 133.232
320.000, 65.717, 135.719
324.655, 65.475, 135.941
329.377, 65.296, 136.740
334.168, 64.811, 139.685
339.028, 64.738, 140.926
343.959, 64.479, 142.005
348.962, 64.295, 143.784
354.038, 64.187, 146.740
359.188, 64.133, 149.179
364.412, 64.053, 150.969
369.713, 63.731, 153.907
375.090, 63.626, 156.717
380.546, 63.441, 158.084
386.081, 63.552, 160.080
391.697, 63.874, 161.026
397.395, 63.964, 163.169
403.175, 64.035, 163.684
409.039, 63.983, 164.831
414.989, 64.174, 167.444
421.025, 64.332, 168.425
427.149, 64.352, 170.394
433.362, 64.321, 172.237
439.665, 64.644, 171.375
446.060, 64.536, 174.813
452.548, 64.577, 174.871
459.131, 64.741, 173.795
465.809, 64.964, 176.427
472.584, 65.108, 176.032
479.458, 65.012, 175.990
486.432, 65.155, 177.711
493.507, 65.320, 178.170
500.686, 65.475, 177.990
507.968, 65.517, 178.857
515.357, 65.782, 178.935
522.853, 65.694, 178.799
530.458, 65.744, 179.441
538.174, 65.839, 179.505
546.002, 65.984, 178.573
553.943, 65.913, 179.488
562.001, 65.986, 179.962
570.175, 66.164, -179.507
578.469, 66.261, 179.680
586.883, 66.135, 179.762
595.419, 66.288, -179.018
604.080, 66.355, 179.996
612.866, 66.431, 179.427
621.780, 66.404, 179.301
630.824, 66.401, 179.904
640.000, 66.533, 179.486
649.309, 66.452, 178.676
658.753, 66.538, 179.556
668.335, 66.642, 179.561
678.056, 66.675, 179.221
687.919, 66.498, 178.641
697.925, 66.503, 178.557
708.076, 66.540, 178.412
718.376, 66.502, 178.811
728.825, 66.577, 178.816
739.426, 66.696, 178.909
750.181, 66.514, 178.158
761.093, 66.538, 178.538
772.163, 66.523, 178.781
783.394, 66.329, 177.942
794.789, 66.272, 178.806
806.349, 66.365, 178.610
818.078, 66.202, 177.749
829.977, 66.087, 179.165
842.050, 66.077, 179.728
854.297, 66.149, 179.584
866.724, 66.045, 179.835
879.330, 66.033, -179.925
892.120, 65.960, -179.763
905.097, 66.013, 179.858
918.262, 65.762, -179.608
931.618, 65.809, -178.528
945.169, 65.715, -179.734
958.917, 65.424, -178.996
972.864, 65.461, -177.880
987.015, 65.621, -176.314
1001.371, 65.609, -176.564
1015.937, 65.533, -175.423
1030.714, 65.401, -174.946
1045.706, 65.366, -173.791
1060.916, 65.223, -172.541
1076.347, 65.264, -172.322
1092.003, 65.407, -170.755
1107.887, 65.462, -168.501
1124.001, 65.801, -167.395
1140.350, 65.960, -168.393
1156.937, 65.950, -168.223
1173.765, 66.048, -168.621
1190.838, 66.151, -168.440
1208.159, 66.179, -168.254
1225.732, 66.081, -168.346
1243.561, 66.386, -167.420
1261.649, 66.125, -167.505
1280.000, 66.039, -168.384
1298.618, 66.128, -166.079
1317.507, 66.015, -166.786
1336.670, 66.106, -165.890
1356.113, 66.247, -165.217
1375.838, 66.338, -165.299
1395.850, 66.176, -164.422
1416.153, 66.203, -163.361
1436.751, 66.280, -161.536
1457.649, 66.432, -159.576
1478.851, 66.717, -160.629
1500.362, 66.813, -159.687
1522.185, 66.922, -160.375
1544.326, 66.861, -159.001
1566.789, 67.101, -158.467
1589.578, 67.396, -159.007
1612.699, 67.649, -160.079
1636.156, 67.562, -158.717
1659.955, 67.653, -160.527
1684.099, 67.953, -160.022
1708.595, 67.883, -160.598
1733.447, 68.129, -160.809
1758.661, 67.960, -161.470
1784.241, 68.184, -160.900
1810.193, 67.966, -162.475
1836.523, 68.267, -161.995
1863.236, 68.333, -162.510
1890.338, 68.280, -161.170
1917.833, 68.135, -161.878
1945.729, 68.258, -162.779
1974.030, 68.257, -162.097
2002.743, 68.088, -162.663
2031.873, 68.370, -161.846
2061.428, 68.238, -161.762
2091.412, 67.950, -162.897
2121.832, 68.151, -165.069
2152.695, 68.327, -164.015
2184.007, 68.381, -163.347
2215.774, 68.224, -162.753
2248.003, 68.162, -161.365
2280.701, 68.289, -162.718
2313.874, 68.084, -160.884
2347.530, 68.351, -160.259
2381.676, 68.124, -159.998
2416.318, 68.015, -161.521
2451.464, 68.134, -159.902
2487.122, 68.228, -158.856
2523.298, 68.280, -156.935
2560.000, 68.398, -156.888
2597.236, 68.548, -158.185
2635.014, 68.803, -155.121
2673.341, 68.860, -157.460
2712.226, 68.988, -156.471
2751.676, 69.220, -156.131
2791.700, 69.843, -157.664
2832.306, 69.767, -158.378
2873.503, 70.034, -158.999
2915.299, 69.908, -161.365
2957.703, 70.363, -163.560
3000.724, 70.553, -163.560
3044.370, 70.231, -165.501
3088.652, 70.014, -165.938
3133.577, 69.933, -169.033
3179.156, 69.767, -171.284
3225.398, 69.879, -172.402
3272.312, 69.632, -175.690
3319.909, 69.033, -178.481
3368.198, 68.816, -179.400
3417.190, 68.482, -178.230
3466.894, 67.660, -178.985
3517.321, 67.131, 179.775
3568.482, 66.225, -177.267
3620.387, 65.163, -178.461
3673.046, 64.236, -173.317
3726.472, 62.661, -170.249
3780.675, 61.634, -155.668
3835.666, 61.473, -135.185
3891.457, 62.511, -119.714
3948.060, 65.506, -109.802
4005.486, 67.549, -104.049
4063.747, 69.917, -103.684
4122.855, 71.551, -107.026
4182.824, 72.711, -115.053
4243.664, 73.312, -120.050
4305.390, 73.658, -123.149
4368.013, 74.865, -125.667
4431.547, 76.249, -133.458
4496.005, 76.488, -143.480
4561.401, 76.125, -150.671
4627.749, 76.021, -155.327
4695.061, 75.699, -161.298
4763.352, 75.431, -164.258
4832.637, 75.151, -169.718
4902.929, 74.730, -170.564
4974.244, 74.861, -174.335
5046.596, 74.202, -178.108
5120.000, 73.832, -179.466
5194.472, 73.492, -177.869
5270.027, 73.650, 179.842
5346.682, 73.041, 176.841
5424.451, 72.742, 176.485
5503.352, 72.318, 174.948
5583.399, 72.051, 177.148
5664.612, 71.588, 178.694
5747.006, 71.620, -179.889
5830.598, 71.738, 179.781
5915.406, 71.709, 178.960
6001.447, 71.781, 178.746
6088.740, 71.581, 177.438
6177.303, 71.318, 179.352
6267.154, 71.172, 177.980
6358.312, 71.087, 179.549
6450.796, 71.137, -179.168
6544.625, 71.213, 179.789
6639.818, 71.255, -178.886
6736.397, 71.343, -178.889
6834.380, 71.653, -178.680
6933.789, 71.644, -179.969
7034.643, 71.618, -179.845
7136.964, 71.818, 178.021
7240.773, 71.783, 178.450
7346.093, 72.178, 179.108
7452.944, 72.701, 177.951
7561.350, 73.431, 169.959
7671.332, 72.687, 166.141
7782.915, 72.754, 168.139
7896.120, 73.044, 165.073
8010.971, 73.650, 162.237
8127.493, 73.791, 157.934
8245.711, 74.092, 152.627
8365.647, 74.473, 144.226
8487.328, 74.590, 134.334
8610.779, 74.601, 121.672
8736.026, 74.054, 103.823
8863.095, 71.781, 88.025
8992.011, 69.306, 75.732
9122.803, 65.835, 66.180
9255.497, 61.979, 58.821
9390.121, 58.490, 68.700
9526.704, 51.933, 78.431
9665.273, 43.917, 108.585
9805.857, 38.356, 107.605
9948.487, 44.526, -148.239
10093.191, 52.491, -125.419
10240.000, 56.900, -126.134
10388.944, 59.064, -132.461
10540.055, 61.115, -138.681
10693.363, 62.271, -145.595
10848.902, 62.581, -153.201
11006.703, 63.317, -158.987
11166.799, 63.285, -164.960
11329.224, 62.952, -170.584
11494.012, 62.472, -171.104
11661.195, 62.397, -172.309
11830.812, 62.294, -177.999
12002.895, 60.523, 176.690
12177.480, 58.270, -162.356
12354.606, 60.860, -146.917
12534.309, 63.816, -153.288
12716.624, 64.945, -166.427
12901.592, 64.202, 178.914
13089.250, 63.817, 173.329
13279.637, 62.624, 162.123
13472.794, 61.404, 155.438
13668.760, 59.902, 150.361
13867.577, 57.521, 148.619
14069.285, 54.257, 150.576
14273.928, 51.812, 166.536
14481.547, 51.084, -178.801
14692.186, 52.455, -155.254
14905.889, 53.933, -161.563
15122.700, 53.527, -164.669
15342.664, 50.638, -165.330
15565.829, 49.444, -156.814
15792.239, 50.007, -135.589
16021.942, 52.363, -123.851
16254.986, 54.666, -118.734
16491.422, 55.759, -129.591
16731.295, 56.377, -136.171
16974.656, 55.054, -152.459
17221.559, 51.089, -155.039
17472.053, 50.426, -119.762
17726.189, 54.145, -110.546
17984.021, 56.251, -119.523
18245.605, 56.541, -127.488
18510.994, 57.056, -131.873
18780.242, 57.693, -143.975
19053.408, 57.545, -155.678
19330.547, 56.369, -172.054
19611.715, 54.610, -177.565
19896.975, 53.133, 175.718
