* Measurement data measured by REW V5.19
* Source: ASIO MOTU M Series, In 1
* Format: 1M Log Swept Sine, 1 sweep at -3.0 dBFS  With no timing reference
* Dated: 10 Dec, 2021 6:00:32 PM
* REW Settings:
*  C-weighting compensation: Off
*  Target level: 75.0 dB
* Note: ; 
* Measurement: Dec 10 18:00:32
* Smoothing: 1/48 octave
* Frequency Step: 1/48 octave
* Start Frequency: 10.1 Hz
*
* Freq(Hz), SPL(dB), Phase(degrees)
10.145, 60.479, -58.526
10.293, 60.607, -59.145
10.443, 60.741, -60.049
10.595, 60.962, -61.305
10.749, 61.198, -62.736
10.905, 61.399, -64.097
11.064, 61.583, -65.525
11.225, 61.761, -67.195
11.388, 61.927, -69.031
11.554, 62.059, -70.865
11.722, 62.161, -72.703
11.892, 62.236, -74.434
12.065, 62.284, -76.056
12.241, 62.322, -77.497
12.419, 62.353, -78.758
12.599, 62.391, -79.800
12.782, 62.443, -80.686
12.968, 62.524, -81.491
13.157, 62.629, -82.296
13.348, 62.761, -83.162
13.543, 62.904, -84.176
13.740, 63.054, -85.365
13.939, 63.190, -86.720
14.142, 63.309, -88.200
14.348, 63.400, -89.748
14.557, 63.465, -91.267
14.768, 63.504, -92.715
14.983, 63.529, -94.010
15.201, 63.551, -95.163
15.422, 63.578, -96.172
15.646, 63.621, -97.118
15.874, 63.680, -98.061
16.105, 63.751, -99.066
16.339, 63.823, -100.182
16.577, 63.887, -101.387
16.818, 63.933, -102.649
17.063, 63.957, -103.883
17.311, 63.964, -105.004
17.563, 63.966, -105.967
17.818, 63.974, -106.751
18.077, 64.005, -107.403
18.340, 64.065, -108.024
18.607, 64.153, -108.707
18.877, 64.260, -109.528
19.152, 64.371, -110.524
19.431, 64.472, -111.653
19.713, 64.558, -112.838
20.000, 64.631, -114.007
20.291, 64.699, -115.122
20.586, 64.773, -116.192
20.885, 64.856, -117.277
21.189, 64.947, -118.454
21.497, 65.030, -119.760
21.810, 65.091, -121.157
22.127, 65.121, -122.538
22.449, 65.125, -123.776
22.776, 65.122, -124.787
23.107, 65.133, -125.592
23.443, 65.176, -126.316
23.784, 65.249, -127.135
24.130, 65.333, -128.170
24.481, 65.403, -129.427
24.837, 65.440, -130.799
25.198, 65.443, -132.146
25.565, 65.425, -133.378
25.937, 65.398, -134.490
26.314, 65.370, -135.527
26.697, 65.339, -136.516
27.085, 65.305, -137.431
27.479, 65.276, -138.240
27.879, 65.266, -138.990
28.284, 65.280, -139.815
28.696, 65.301, -140.835
29.113, 65.301, -142.044
29.537, 65.263, -143.270
29.966, 65.196, -144.309
30.402, 65.130, -145.095
30.844, 65.091, -145.759
31.293, 65.071, -146.502
31.748, 65.043, -147.391
32.210, 64.982, -148.297
32.678, 64.891, -149.008
33.154, 64.798, -149.433
33.636, 64.729, -149.668
34.125, 64.688, -149.898
34.621, 64.655, -150.217
35.125, 64.611, -150.561
35.636, 64.561, -150.815
36.154, 64.520, -150.945
36.680, 64.500, -151.002
37.214, 64.507, -151.027
37.755, 64.551, -151.077
38.304, 64.635, -151.327
38.861, 64.726, -151.941
39.427, 64.779, -152.725
40.000, 64.811, -153.293
40.582, 64.894, -153.691
41.172, 65.029, -154.487
41.771, 65.123, -155.881
42.379, 65.119, -157.353
42.995, 65.066, -158.501
43.620, 65.000, -159.549
44.255, 64.888, -160.546
44.898, 64.744, -161.201
45.552, 64.617, -161.728
46.214, 64.448, -162.380
46.886, 64.211, -162.403
47.568, 64.087, -161.621
48.260, 64.116, -161.601
48.962, 64.018, -162.583
49.674, 63.744, -162.495
50.397, 63.609, -160.931
51.130, 63.685, -159.658
51.874, 63.791, -159.018
52.628, 63.914, -158.620
53.394, 64.006, -158.702
54.170, 64.000, -158.553
54.958, 64.039, -157.734
55.758, 64.165, -157.286
56.569, 64.238, -157.240
57.391, 64.303, -156.888
58.226, 64.438, -156.748
59.073, 64.551, -157.120
59.932, 64.624, -157.416
60.804, 64.725, -157.563
61.688, 64.860, -157.805
62.586, 65.016, -158.269
63.496, 65.148, -158.992
64.420, 65.245, -159.586
65.357, 65.361, -160.107
66.307, 65.459, -160.774
67.272, 65.550, -161.293
68.250, 65.662, -161.969
69.243, 65.747, -162.758
70.250, 65.845, -163.533
71.272, 65.930, -164.573
72.309, 65.984, -165.532
73.360, 66.043, -166.403
74.427, 66.112, -167.238
75.510, 66.189, -168.196
76.608, 66.240, -169.179
77.723, 66.285, -170.058
78.853, 66.332, -170.906
80.000, 66.381, -171.849
81.164, 66.411, -172.856
82.344, 66.436, -173.915
83.542, 66.458, -175.044
84.757, 66.478, -176.376
85.990, 66.469, -177.713
87.241, 66.460, -178.957
88.510, 66.458, -179.938
89.797, 66.507, 178.823
91.103, 66.462, 177.275
92.428, 66.349, 175.976
93.773, 66.173, 174.834
95.137, 65.968, 174.162
96.520, 65.822, 173.735
97.924, 65.732, 173.458
99.349, 65.734, 172.955
100.794, 65.731, 172.434
102.260, 65.771, 171.791
103.747, 65.770, 170.886
105.256, 65.722, 169.951
106.787, 65.676, 168.925
108.340, 65.586, 167.744
109.916, 65.491, 166.780
111.515, 65.409, 165.941
113.137, 65.328, 164.892
114.783, 65.214, 163.888
116.452, 65.101, 162.947
118.146, 65.012, 161.867
119.865, 64.908, 160.772
121.608, 64.762, 159.568
123.377, 64.607, 158.542
125.171, 64.426, 157.599
126.992, 64.244, 156.805
128.839, 64.065, 156.338
130.713, 63.826, 155.746
132.615, 63.576, 155.354
134.543, 63.312, 154.696
136.500, 63.088, 154.117
138.486, 62.871, 153.822
140.500, 62.669, 153.862
142.544, 62.437, 153.782
144.617, 62.172, 153.823
146.721, 61.939, 153.918
148.855, 61.726, 154.135
151.020, 61.524, 154.525
153.217, 61.333, 155.020
155.445, 61.142, 155.500
157.706, 60.942, 156.256
160.000, 60.784, 156.948
162.327, 60.627, 157.241
164.688, 60.425, 157.510
167.084, 60.242, 158.135
169.514, 60.083, 158.782
171.980, 59.930, 159.503
174.481, 59.779, 160.213
177.019, 59.648, 160.776
179.594, 59.500, 161.305
182.206, 59.360, 162.285
184.856, 59.195, 163.242
187.545, 58.981, 163.848
190.273, 58.790, 164.325
193.041, 58.524, 164.796
195.849, 57.988, 167.390
198.697, 57.892, 173.590
201.587, 58.548, 176.506
204.520, 58.888, 175.696
207.494, 58.909, 175.108
210.512, 58.820, 175.335
213.574, 58.727, 175.979
216.681, 58.649, 176.798
219.833, 58.602, 177.636
223.030, 58.561, 178.517
226.274, 58.582, 179.545
229.565, 58.609, -179.465
232.905, 58.587, -178.494
236.292, 58.575, -177.753
239.729, 58.600, -177.012
243.216, 58.620, -176.302
246.754, 58.620, -175.497
250.343, 58.630, -174.487
253.984, 58.675, -173.926
257.678, 58.707, -173.394
261.426, 58.741, -172.828
265.229, 58.744, -172.345
269.087, 58.734, -171.763
273.001, 58.744, -171.090
276.972, 58.740, -170.336
281.000, 58.746, -169.529
285.088, 58.769, -168.751
289.234, 58.790, -167.997
293.441, 58.815, -167.273
297.710, 58.853, -166.452
302.040, 58.896, -165.721
306.433, 58.927, -165.076
310.890, 58.940, -164.576
315.412, 59.004, -164.017
320.000, 59.057, -163.264
324.655, 59.090, -162.601
329.377, 59.147, -161.967
334.168, 59.209, -161.371
339.028, 59.268, -160.929
343.959, 59.318, -160.433
348.962, 59.365, -160.073
354.038, 59.404, -159.597
359.188, 59.444, -159.246
364.412, 59.463, -158.849
369.713, 59.469, -158.424
375.090, 59.475, -157.874
380.546, 59.460, -157.216
386.081, 59.457, -156.421
391.697, 59.471, -155.544
397.395, 59.510, -154.611
403.175, 59.564, -153.695
409.039, 59.639, -152.737
414.989, 59.727, -151.893
421.025, 59.804, -151.159
427.149, 59.906, -150.463
433.362, 60.008, -149.794
439.665, 60.090, -149.241
446.060, 60.175, -148.673
452.548, 60.260, -148.091
459.131, 60.352, -147.571
465.809, 60.435, -146.977
472.584, 60.527, -146.464
479.458, 60.619, -145.958
486.432, 60.711, -145.448
493.507, 60.804, -144.961
500.686, 60.898, -144.533
507.968, 60.978, -144.077
515.357, 61.045, -143.670
522.853, 61.105, -143.099
530.458, 61.168, -142.362
538.174, 61.241, -141.589
546.002, 61.352, -140.758
553.943, 61.479, -139.915
562.001, 61.612, -139.200
570.175, 61.758, -138.431
578.469, 61.940, -137.633
586.883, 62.150, -136.958
595.419, 62.370, -136.638
604.080, 62.576, -136.576
612.866, 62.757, -136.621
621.780, 62.921, -136.678
630.824, 63.074, -136.772
640.000, 63.223, -136.903
649.309, 63.355, -137.115
658.753, 63.466, -137.302
668.335, 63.548, -137.361
678.056, 63.626, -137.176
687.919, 63.739, -136.785
697.925, 63.892, -136.503
708.076, 64.073, -136.397
718.376, 64.256, -136.563
728.825, 64.408, -136.931
739.426, 64.528, -137.319
750.181, 64.628, -137.606
761.093, 64.723, -137.737
772.163, 64.838, -137.819
783.394, 64.967, -137.991
794.789, 65.089, -138.323
806.349, 65.184, -138.707
818.078, 65.251, -138.978
829.977, 65.332, -138.980
842.050, 65.456, -139.027
854.297, 65.581, -139.425
866.724, 65.654, -139.971
879.330, 65.678, -140.268
892.120, 65.709, -140.151
905.097, 65.796, -139.857
918.262, 65.929, -139.762
931.618, 66.067, -139.991
945.169, 66.167, -140.516
958.917, 66.181, -140.987
972.864, 66.156, -140.690
987.015, 66.229, -139.823
1001.371, 66.405, -139.075
1015.937, 66.652, -138.721
1030.714, 66.923, -139.021
1045.706, 67.138, -139.909
1060.916, 67.270, -140.855
1076.347, 67.365, -141.553
1092.003, 67.462, -142.050
1107.887, 67.581, -142.474
1124.001, 67.730, -143.013
1140.350, 67.882, -143.898
1156.937, 67.994, -145.110
1173.765, 68.026, -146.441
1190.838, 67.970, -147.340
1208.159, 67.931, -147.363
1225.732, 68.052, -147.142
1243.561, 68.269, -148.028
1261.649, 68.368, -149.996
1280.000, 68.273, -152.163
1298.618, 67.976, -153.545
1317.507, 67.615, -153.183
1336.670, 67.381, -151.310
1356.113, 67.404, -148.820
1375.838, 67.651, -147.092
1395.850, 67.950, -146.519
1416.153, 68.215, -146.682
1436.751, 68.440, -147.177
1457.649, 68.627, -148.019
1478.851, 68.758, -149.095
1500.362, 68.828, -150.174
1522.185, 68.845, -151.149
1544.326, 68.811, -151.867
1566.789, 68.759, -151.996
1589.578, 68.791, -151.796
1612.699, 68.865, -151.964
1636.156, 68.894, -152.318
1659.955, 68.905, -152.373
1684.099, 68.948, -152.375
1708.595, 68.982, -152.481
1733.447, 68.987, -152.534
1758.661, 68.950, -152.253
1784.241, 68.944, -151.134
1810.193, 69.086, -149.791
1836.523, 69.318, -148.935
1863.236, 69.562, -148.512
1890.338, 69.810, -148.303
1917.833, 70.068, -148.306
1945.729, 70.323, -148.309
1974.030, 70.622, -148.341
2002.743, 70.972, -148.769
2031.873, 71.335, -149.705
2061.428, 71.675, -151.284
2091.412, 71.921, -153.268
2121.832, 72.078, -155.056
2152.695, 72.232, -156.450
2184.007, 72.473, -157.969
2215.774, 72.679, -159.816
2248.003, 72.853, -161.930
2280.701, 72.994, -164.303
2313.874, 73.061, -166.918
2347.530, 73.016, -169.254
2381.676, 72.964, -170.743
2416.318, 73.017, -172.032
2451.464, 73.123, -173.932
2487.122, 73.153, -176.426
2523.298, 73.069, -178.760
2560.000, 72.956, 179.503
2597.236, 72.881, 177.995
2635.014, 72.821, 176.517
2673.341, 72.789, 174.976
2712.226, 72.754, 173.071
2751.676, 72.649, 170.957
2791.700, 72.472, 169.136
2832.306, 72.283, 167.830
2873.503, 72.136, 166.818
2915.299, 72.046, 165.811
2957.703, 71.995, 164.321
3000.724, 71.863, 162.227
3044.370, 71.574, 160.571
3088.652, 71.311, 160.120
3133.577, 71.197, 159.764
3179.156, 71.143, 158.803
3225.398, 71.051, 157.233
3272.312, 70.872, 155.599
3319.909, 70.662, 154.216
3368.198, 70.443, 152.799
3417.190, 70.172, 151.414
3466.894, 69.890, 150.284
3517.321, 69.596, 148.879
3568.482, 69.152, 147.282
3620.387, 68.503, 147.089
3673.046, 67.955, 149.145
3726.472, 67.699, 151.731
3780.675, 67.626, 153.715
3835.666, 67.609, 154.980
3891.457, 67.597, 156.009
3948.060, 67.675, 156.887
4005.486, 67.807, 156.647
4063.747, 67.776, 155.596
4122.855, 67.621, 155.439
4182.824, 67.591, 155.933
4243.664, 67.681, 155.694
4305.390, 67.716, 154.368
4368.013, 67.582, 152.828
4431.547, 67.345, 152.082
4496.005, 67.159, 152.131
4561.401, 67.081, 152.161
4627.749, 67.024, 151.578
4695.061, 66.880, 150.867
4763.352, 66.734, 150.693
4832.637, 66.653, 150.477
4902.929, 66.591, 150.009
4974.244, 66.530, 149.108
5046.596, 66.375, 148.053
5120.000, 66.197, 147.607
5194.472, 66.111, 147.419
5270.027, 66.126, 146.624
5346.682, 66.115, 144.726
5424.451, 65.972, 142.253
5503.352, 65.682, 139.656
5583.399, 65.259, 137.684
5664.612, 64.859, 136.420
5747.006, 64.516, 134.656
5830.598, 64.017, 132.046
5915.406, 63.240, 130.162
6001.447, 62.398, 130.016
6088.740, 61.607, 130.538
6177.303, 60.762, 131.750
6267.154, 59.906, 134.391
6358.312, 59.198, 138.516
6450.796, 58.772, 142.972
6544.625, 58.515, 146.606
6639.818, 58.304, 149.470
6736.397, 58.083, 151.618
6834.380, 57.761, 153.269
6933.789, 57.287, 155.287
7034.643, 56.750, 158.308
7136.964, 56.230, 162.294
7240.773, 55.744, 167.375
7346.093, 55.434, 173.733
7452.944, 55.360, -179.968
7561.350, 55.385, -173.725
7671.332, 55.541, -167.372
7782.915, 55.803, -160.812
7896.120, 56.263, -153.395
8010.971, 57.215, -145.478
8127.493, 58.734, -139.965
8245.711, 60.454, -138.479
8365.647, 62.110, -141.001
8487.328, 63.562, -146.841
8610.779, 64.755, -155.762
8736.026, 65.568, -168.205
8863.095, 65.745, 174.982
8992.011, 64.442, 156.034
9122.803, 61.688, 143.754
9255.497, 58.033, 142.223
9390.121, 54.264, 153.931
9526.704, 51.758, 177.741
9665.273, 51.995, -156.497
9805.857, 53.817, -139.791
9948.487, 55.656, -131.198
10093.191, 57.503, -125.699
10240.000, 59.681, -124.204
10388.944, 61.616, -130.316
10540.055, 62.560, -141.434
10693.363, 62.478, -152.068
10848.902, 61.713, -158.729
11006.703, 60.715, -160.170
11166.799, 60.049, -157.085
11329.224, 59.997, -152.784
11494.012, 60.417, -149.593
11661.195, 61.116, -148.146
11830.812, 62.059, -149.290
12002.895, 63.041, -154.510
12177.480, 63.606, -164.504
12354.606, 63.373, -176.972
12534.309, 62.221, 170.955
12716.624, 60.073, 163.567
12901.592, 57.471, 166.125
13089.250, 55.874, 176.327
13279.637, 55.584, -176.274
13472.794, 55.255, -173.247
13668.760, 54.516, -168.669
13867.577, 54.291, -159.226
14069.285, 55.401, -153.328
14273.928, 56.307, -157.871
14481.547, 55.818, -167.563
14692.186, 53.355, -168.717
14905.889, 51.787, -145.018
15122.700, 54.853, -131.023
15342.664, 56.807, -141.576
15565.829, 56.453, -156.812
15792.239, 54.447, -162.658
16021.942, 52.458, -156.517
16254.986, 51.526, -145.568
16491.422, 51.760, -132.076
16731.295, 53.633, -123.088
16974.656, 55.454, -125.597
17221.559, 56.467, -133.107
17472.053, 56.942, -142.232
17726.189, 56.782, -153.071
17984.021, 55.846, -162.115
18245.605, 54.638, -167.686
18510.994, 53.379, -171.380
18780.242, 52.230, -173.594
19053.408, 51.133, -177.174
19330.547, 49.643, 179.257
19611.715, 47.800, 178.182
19896.975, 46.172, 179.758
