* Measurement data measured by REW V5.19
* Source: ASIO MOTU M Series, In 1
* Format: 1M Log Swept Sine, 1 sweep at -3.0 dBFS  With no timing reference
* Dated: 28 Oct, 2020 5:24:10 PM
* REW Settings:
*  C-weighting compensation: Off
*  Target level: 75.0 dB
* Note: ; 
* Measurement: Oct 28 17:24:10
* Smoothing: None
* Frequency Step: 1/48 octave
* Start Frequency: 10.1 Hz
*
* Freq(Hz), SPL(dB), Phase(degrees)
10.145, 53.953, -58.524
10.293, 54.158, -59.371
10.443, 54.364, -60.343
10.595, 54.552, -61.304
10.749, 54.728, -62.282
10.905, 54.887, -63.227
11.064, 55.034, -64.132
11.225, 55.173, -64.936
11.388, 55.305, -65.648
11.554, 55.442, -66.257
11.722, 55.584, -66.773
11.892, 55.739, -67.252
12.065, 55.908, -67.702
12.241, 56.090, -68.211
12.419, 56.281, -68.783
12.599, 56.475, -69.479
12.782, 56.667, -70.285
12.968, 56.846, -71.212
13.157, 57.010, -72.218
13.348, 57.152, -73.286
13.543, 57.274, -74.351
13.740, 57.374, -75.394
13.939, 57.459, -76.364
14.142, 57.533, -77.257
14.348, 57.602, -78.058
14.557, 57.672, -78.795
14.768, 57.746, -79.476
14.983, 57.827, -80.146
15.201, 57.913, -80.824
15.422, 58.004, -81.530
15.646, 58.096, -82.276
15.874, 58.188, -83.057
16.105, 58.278, -83.869
16.339, 58.367, -84.700
16.577, 58.453, -85.543
16.818, 58.539, -86.391
17.063, 58.624, -87.236
17.311, 58.709, -88.063
17.563, 58.794, -88.860
17.818, 58.884, -89.610
18.077, 58.981, -90.303
18.340, 59.094, -90.952
18.607, 59.225, -91.593
18.877, 59.378, -92.281
19.152, 59.547, -93.086
19.431, 59.722, -94.066
19.713, 59.885, -95.223
20.000, 60.022, -96.501
20.291, 60.123, -97.793
20.586, 60.185, -98.964
20.885, 60.220, -99.880
21.189, 60.253, -100.471
21.497, 60.308, -100.782
21.810, 60.403, -100.967
22.127, 60.536, -101.216
22.449, 60.686, -101.658
22.776, 60.827, -102.297
23.107, 60.940, -103.024
23.443, 61.027, -103.689
23.784, 61.105, -104.203
24.130, 61.195, -104.602
24.481, 61.305, -105.022
24.837, 61.426, -105.594
25.198, 61.534, -106.331
25.565, 61.615, -107.119
25.937, 61.674, -107.805
26.314, 61.735, -108.329
26.697, 61.818, -108.783
27.085, 61.923, -109.328
27.479, 62.031, -110.048
27.879, 62.120, -110.875
28.284, 62.188, -111.666
28.696, 62.249, -112.349
29.113, 62.315, -112.960
29.537, 62.385, -113.550
29.966, 62.454, -114.083
30.402, 62.532, -114.501
30.844, 62.642, -114.888
31.293, 62.783, -115.492
31.748, 62.914, -116.466
32.210, 62.989, -117.641
32.678, 63.006, -118.626
33.154, 63.019, -119.226
33.636, 63.077, -119.672
34.125, 63.170, -120.341
34.621, 63.246, -121.275
35.125, 63.286, -122.179
35.636, 63.323, -122.880
36.154, 63.390, -123.542
36.680, 63.467, -124.354
37.214, 63.524, -125.226
37.755, 63.573, -125.974
38.304, 63.640, -126.675
38.861, 63.707, -127.520
39.427, 63.738, -128.402
40.000, 63.745, -129.048
40.582, 63.777, -129.514
41.172, 63.825, -130.182
41.771, 63.819, -131.044
42.379, 63.750, -131.484
42.995, 63.743, -131.248
43.620, 63.878, -131.351
44.255, 63.991, -132.610
44.898, 63.907, -133.947
45.552, 63.774, -133.738
46.214, 63.905, -132.800
46.886, 64.210, -133.397
47.568, 64.365, -135.232
48.260, 64.372, -136.621
48.962, 64.398, -137.559
49.674, 64.404, -138.687
50.397, 64.331, -139.486
51.130, 64.275, -139.650
51.874, 64.291, -139.752
52.628, 64.324, -140.345
53.394, 64.237, -141.225
54.170, 64.058, -140.918
54.958, 64.111, -139.712
55.758, 64.303, -140.110
56.569, 64.302, -141.017
57.391, 64.336, -141.226
58.226, 64.373, -142.479
59.073, 64.181, -143.264
59.932, 64.103, -142.925
60.804, 64.013, -143.630
61.688, 63.722, -143.021
62.586, 63.687, -141.093
63.496, 63.740, -140.043
64.420, 63.859, -138.228
65.357, 64.235, -137.396
66.307, 64.496, -137.937
67.272, 64.709, -138.034
68.250, 64.961, -138.651
69.243, 65.117, -139.495
70.250, 65.256, -140.300
71.272, 65.329, -141.240
72.309, 65.402, -141.908
73.360, 65.463, -142.887
74.427, 65.510, -143.485
75.510, 65.618, -144.536
76.608, 65.616, -145.480
77.723, 65.694, -146.116
78.853, 65.685, -147.173
80.000, 65.682, -147.521
81.164, 65.665, -148.319
82.344, 65.604, -148.370
83.542, 65.640, -148.462
84.757, 65.687, -148.582
85.990, 65.760, -148.933
87.241, 65.837, -149.163
88.510, 65.906, -149.837
89.797, 65.946, -150.184
91.103, 65.979, -150.957
92.428, 66.018, -151.493
93.773, 66.004, -152.335
95.137, 66.071, -152.718
96.520, 66.091, -153.689
97.924, 66.074, -154.182
99.349, 66.116, -154.417
100.794, 66.125, -155.100
102.260, 66.153, -155.480
103.747, 66.147, -156.010
105.256, 66.186, -156.621
106.787, 66.161, -156.873
108.340, 66.217, -157.660
109.916, 66.153, -158.297
111.515, 66.133, -158.493
113.137, 66.162, -159.209
114.783, 66.122, -159.447
116.452, 66.108, -160.001
118.146, 66.124, -160.525
119.865, 66.069, -160.324
121.608, 66.103, -160.971
123.377, 66.098, -161.307
125.171, 66.117, -161.229
126.992, 66.130, -161.473
128.839, 66.090, -162.313
130.713, 66.083, -162.578
132.615, 66.121, -163.145
134.543, 66.082, -163.414
136.500, 66.019, -163.574
138.486, 65.951, -163.782
140.500, 65.977, -163.750
142.544, 66.011, -163.838
144.617, 66.006, -164.008
146.721, 66.045, -164.254
148.855, 66.063, -164.499
151.020, 66.011, -164.980
153.217, 66.048, -165.461
155.445, 66.043, -165.695
157.706, 66.024, -165.937
160.000, 65.997, -166.667
162.327, 66.019, -166.748
164.688, 65.957, -166.922
167.084, 65.950, -167.403
169.514, 65.899, -167.857
171.980, 65.950, -168.269
174.481, 65.917, -168.355
177.019, 65.894, -168.275
179.594, 65.789, -168.633
182.206, 65.722, -169.222
184.856, 65.785, -169.401
187.545, 65.688, -169.326
190.273, 65.640, -169.389
193.041, 65.553, -169.082
195.849, 65.556, -168.651
198.697, 65.503, -168.757
201.587, 65.570, -168.298
204.520, 65.559, -168.489
207.494, 65.554, -168.482
210.512, 65.582, -168.700
213.574, 65.598, -168.768
216.681, 65.575, -168.673
219.833, 65.567, -168.842
223.030, 65.542, -169.031
226.274, 65.535, -168.960
229.565, 65.533, -168.960
232.905, 65.532, -168.970
236.292, 65.548, -168.933
239.729, 65.532, -169.036
243.216, 65.523, -168.935
246.754, 65.508, -169.060
250.343, 65.520, -169.139
253.984, 65.518, -169.165
257.678, 65.505, -169.136
261.426, 65.494, -169.216
265.229, 65.486, -169.343
269.087, 65.481, -169.277
273.001, 65.464, -169.368
276.972, 65.445, -169.514
281.000, 65.427, -169.420
285.088, 65.419, -169.402
289.234, 65.417, -169.280
293.441, 65.429, -169.161
297.710, 65.434, -169.226
302.040, 65.433, -169.441
306.433, 65.408, -169.359
310.890, 65.415, -169.499
315.412, 65.359, -169.565
320.000, 65.353, -168.915
324.655, 65.279, -169.198
329.377, 65.459, -169.083
334.168, 65.425, -169.003
339.028, 65.379, -169.334
343.959, 65.399, -169.076
348.962, 65.350, -168.893
354.038, 65.274, -168.636
359.188, 65.236, -168.688
364.412, 65.189, -168.131
369.713, 65.186, -168.361
375.090, 65.150, -167.341
380.546, 65.202, -167.511
386.081, 65.164, -167.136
391.697, 65.334, -167.603
397.395, 65.230, -166.883
403.175, 65.341, -166.891
409.039, 65.256, -166.595
414.989, 65.308, -166.376
421.025, 65.324, -166.592
427.149, 65.339, -166.310
433.362, 65.351, -166.547
439.665, 65.408, -166.469
446.060, 65.394, -165.584
452.548, 65.355, -165.692
459.131, 65.376, -165.606
465.809, 65.394, -165.399
472.584, 65.393, -165.266
479.458, 65.399, -165.175
486.432, 65.426, -164.816
493.507, 65.407, -164.522
500.686, 65.430, -164.487
507.968, 65.458, -164.294
515.357, 65.467, -164.107
522.853, 65.487, -163.933
530.458, 65.490, -163.767
538.174, 65.562, -163.467
546.002, 65.566, -163.348
553.943, 65.582, -162.989
562.001, 65.579, -162.799
570.175, 65.625, -162.821
578.469, 65.665, -162.532
586.883, 65.681, -162.427
595.419, 65.704, -162.069
604.080, 65.739, -162.039
612.866, 65.768, -161.725
621.780, 65.803, -161.673
630.824, 65.824, -161.450
640.000, 65.861, -161.473
649.309, 65.903, -161.182
658.753, 65.943, -161.201
668.335, 65.961, -161.119
678.056, 65.993, -161.029
687.919, 66.031, -160.864
697.925, 66.045, -160.926
708.076, 66.074, -160.825
718.376, 66.093, -160.798
728.825, 66.099, -160.937
739.426, 66.092, -160.788
750.181, 66.063, -160.579
761.093, 66.086, -160.411
772.163, 66.064, -160.137
783.394, 66.064, -159.786
794.789, 66.077, -159.311
806.349, 66.102, -158.921
818.078, 66.111, -158.213
829.977, 66.162, -157.904
842.050, 66.220, -157.425
854.297, 66.298, -156.949
866.724, 66.352, -156.696
879.330, 66.402, -156.300
892.120, 66.505, -156.059
905.097, 66.594, -155.955
918.262, 66.642, -155.976
931.618, 66.694, -155.875
945.169, 66.700, -155.745
958.917, 66.779, -155.374
972.864, 66.865, -155.042
987.015, 66.933, -154.848
1001.371, 67.006, -154.691
1015.937, 67.090, -154.612
1030.714, 67.163, -154.650
1045.706, 67.247, -154.697
1060.916, 67.298, -154.675
1076.347, 67.347, -154.398
1092.003, 67.428, -154.435
1107.887, 67.450, -154.160
1124.001, 67.570, -154.064
1140.350, 67.654, -153.832
1156.937, 67.722, -154.158
1173.765, 67.791, -154.113
1190.838, 67.850, -154.089
1208.159, 67.932, -154.176
1225.732, 67.993, -154.578
1243.561, 68.063, -154.602
1261.649, 68.071, -154.728
1280.000, 68.195, -154.521
1298.618, 68.202, -154.942
1317.507, 68.271, -154.810
1336.670, 68.297, -155.081
1356.113, 68.292, -154.963
1375.838, 68.480, -154.885
1395.850, 68.453, -154.973
1416.153, 68.490, -154.788
1436.751, 68.535, -154.858
1457.649, 68.518, -154.723
1478.851, 68.614, -154.805
1500.362, 68.649, -155.016
1522.185, 68.634, -154.554
1544.326, 68.721, -154.622
1566.789, 68.671, -153.500
1589.578, 68.820, -154.147
1612.699, 68.865, -153.105
1636.156, 68.996, -153.377
1659.955, 69.111, -152.935
1684.099, 69.150, -153.210
1708.595, 69.259, -152.152
1733.447, 69.349, -153.003
1758.661, 69.457, -152.501
1784.241, 69.562, -151.947
1810.193, 69.709, -151.999
1836.523, 69.866, -152.176
1863.236, 69.924, -152.046
1890.338, 70.023, -152.212
1917.833, 70.218, -151.848
1945.729, 70.477, -152.453
1974.030, 70.521, -152.746
2002.743, 70.633, -152.709
2031.873, 70.801, -153.033
2061.428, 71.033, -153.383
2091.412, 71.215, -154.516
2121.832, 71.182, -154.130
2152.695, 71.369, -155.538
2184.007, 71.381, -155.356
2215.774, 71.562, -155.102
2248.003, 71.703, -155.113
2280.701, 71.918, -155.477
2313.874, 72.153, -156.387
2347.530, 72.350, -157.357
2381.676, 72.435, -157.740
2416.318, 72.685, -158.801
2451.464, 72.826, -159.765
2487.122, 72.984, -160.709
2523.298, 73.131, -162.265
2560.000, 73.249, -163.812
2597.236, 73.354, -164.814
2635.014, 73.411, -166.192
2673.341, 73.532, -167.481
2712.226, 73.719, -168.466
2751.676, 73.884, -170.038
2791.700, 74.000, -171.745
2832.306, 74.092, -173.831
2873.503, 74.159, -175.632
2915.299, 74.163, -177.828
2957.703, 74.193, -179.246
3000.724, 74.285, 178.235
3044.370, 74.217, 176.097
3088.652, 74.152, 174.166
3133.577, 74.167, 172.166
3179.156, 74.084, 169.758
3225.398, 74.061, 167.445
3272.312, 73.887, 165.199
3319.909, 73.724, 162.927
3368.198, 73.551, 160.520
3417.190, 73.306, 158.148
3466.894, 72.993, 156.375
3517.321, 72.687, 154.607
3568.482, 72.355, 152.948
3620.387, 72.007, 151.736
3673.046, 71.598, 150.689
3726.472, 71.226, 150.204
3780.675, 70.831, 149.622
3835.666, 70.445, 150.073
3891.457, 70.097, 150.784
3948.060, 69.859, 152.086
4005.486, 69.833, 153.138
4063.747, 69.885, 153.493
4122.855, 69.912, 152.912
4182.824, 69.899, 151.328
4243.664, 69.798, 149.374
4305.390, 69.565, 147.310
4368.013, 69.231, 145.369
4431.547, 68.830, 144.318
4496.005, 68.438, 143.097
4561.401, 67.978, 142.160
4627.749, 67.475, 141.379
4695.061, 66.901, 140.848
4763.352, 66.213, 141.174
4832.637, 65.508, 142.747
4902.929, 64.803, 145.147
4974.244, 64.264, 149.245
5046.596, 63.861, 154.074
5120.000, 63.749, 159.159
5194.472, 63.903, 164.339
5270.027, 64.312, 167.857
5346.682, 64.728, 169.173
5424.451, 65.066, 169.067
5503.352, 65.233, 168.330
5583.399, 65.171, 167.711
5664.612, 65.096, 167.797
5747.006, 65.007, 167.835
5830.598, 64.847, 168.197
5915.406, 64.624, 169.140
6001.447, 64.468, 171.016
6088.740, 64.466, 173.223
6177.303, 64.559, 175.276
6267.154, 64.743, 176.962
6358.312, 65.012, 178.073
6450.796, 65.314, 178.453
6544.625, 65.603, 178.004
6639.818, 65.887, 177.094
6736.397, 66.124, 175.329
6834.380, 66.255, 173.094
6933.789, 66.292, 170.487
7034.643, 66.225, 167.376
7136.964, 65.951, 164.312
7240.773, 65.532, 162.196
7346.093, 65.072, 160.957
7452.944, 64.637, 160.722
7561.350, 64.299, 160.999
7671.332, 64.060, 161.155
7782.915, 63.858, 160.891
7896.120, 63.658, 160.606
8010.971, 63.608, 158.349
8127.493, 63.066, 156.307
8245.711, 62.489, 154.823
8365.647, 61.757, 153.914
8487.328, 60.923, 154.005
8610.779, 59.976, 155.274
8736.026, 58.950, 158.758
8863.095, 58.092, 164.594
8992.011, 57.515, 172.417
9122.803, 57.427, -178.689
9255.497, 57.856, -170.303
9390.121, 58.792, -164.348
9526.704, 59.945, -162.589
9665.273, 60.904, -164.683
9805.857, 61.450, -169.067
9948.487, 61.592, -173.750
10093.191, 61.474, -177.881
10240.000, 61.256, 178.675
10388.944, 60.919, 175.140
10540.055, 60.495, 171.779
10693.363, 59.909, 168.427
10848.902, 59.214, 165.161
11006.703, 58.253, 161.673
11166.799, 56.832, 158.861
11329.224, 54.920, 160.349
11494.012, 53.213, 168.731
11661.195, 52.440, 179.836
11830.812, 52.473, -170.223
12002.895, 52.897, -164.358
12177.480, 53.328, -162.218
12354.606, 53.438, -162.790
12534.309, 53.199, -163.362
12716.624, 52.815, -164.430
12901.592, 52.287, -165.889
13089.250, 51.574, -169.597
13279.637, 50.176, -175.412
13472.794, 47.920, 174.811
13668.760, 43.779, 151.426
13867.577, 42.549, 63.023
14069.285, 51.158, -2.859
14273.928, 54.900, -37.479
14481.547, 56.024, -55.917
14692.186, 56.610, -63.854
14905.889, 57.519, -67.183
15122.700, 58.796, -71.854
15342.664, 59.911, -79.675
15565.829, 60.653, -89.156
15792.239, 60.970, -99.839
16021.942, 60.816, -111.856
16254.986, 59.785, -122.349
16491.422, 58.307, -128.352
16731.295, 56.814, -129.212
16974.656, 55.771, -126.138
17221.559, 55.476, -122.895
17472.053, 55.576, -123.222
17726.189, 55.394, -127.889
17984.021, 54.496, -133.573
18245.605, 53.127, -136.114
18510.994, 51.786, -135.727
18780.242, 50.645, -134.101
19053.408, 49.707, -133.481
19330.547, 48.370, -134.412
19611.715, 46.685, -133.144
19896.975, 44.707, -130.563
