* Measurement data measured by REW V5.19
* Source: ASIO MOTU M Series, In 1
* Format: 1M Log Swept Sine, 1 sweep at -3.0 dBFS  With no timing reference
* Dated: 15 Feb, 2021 4:13:07 PM
* REW Settings:
*  C-weighting compensation: Off
*  Target level: 75.0 dB
* Note: ; 
* Measurement: Feb 15 16:13:07
* Smoothing: 1/48 octave
* Frequency Step: 1/48 octave
* Start Frequency: 10.1 Hz
*
* Freq(Hz), SPL(dB), Phase(degrees)
10.145, 57.559, 132.084
10.293, 57.629, 131.178
10.443, 57.701, 130.002
10.595, 57.814, 128.515
10.749, 57.934, 127.018
10.905, 58.035, 125.995
11.064, 58.133, 125.161
11.225, 58.251, 124.164
11.388, 58.381, 123.103
11.554, 58.514, 122.075
11.722, 58.651, 121.063
11.892, 58.791, 120.047
12.065, 58.934, 119.024
12.241, 59.081, 117.964
12.419, 59.231, 116.880
12.599, 59.385, 115.809
12.782, 59.542, 114.720
12.968, 59.704, 113.566
13.157, 59.867, 112.357
13.348, 60.030, 111.093
13.543, 60.187, 109.759
13.740, 60.335, 108.351
13.939, 60.469, 106.904
14.142, 60.588, 105.441
14.348, 60.689, 104.002
14.557, 60.775, 102.632
14.768, 60.848, 101.351
14.983, 60.917, 100.200
15.201, 60.987, 99.163
15.422, 61.066, 98.233
15.646, 61.160, 97.354
15.874, 61.268, 96.482
16.105, 61.389, 95.571
16.339, 61.515, 94.577
16.577, 61.638, 93.508
16.818, 61.754, 92.373
17.063, 61.857, 91.221
17.311, 61.949, 90.103
17.563, 62.035, 89.049
17.818, 62.121, 88.075
18.077, 62.218, 87.156
18.340, 62.327, 86.230
18.607, 62.447, 85.240
18.877, 62.571, 84.141
19.152, 62.687, 82.919
19.431, 62.783, 81.621
19.713, 62.857, 80.330
20.000, 62.913, 79.125
20.291, 62.961, 78.052
20.586, 63.015, 77.104
20.885, 63.085, 76.211
21.189, 63.170, 75.271
21.497, 63.257, 74.212
21.810, 63.328, 73.049
22.127, 63.372, 71.884
22.449, 63.392, 70.856
22.776, 63.406, 70.061
23.107, 63.442, 69.476
23.443, 63.518, 68.945
23.784, 63.631, 68.254
24.130, 63.753, 67.255
24.481, 63.850, 65.964
24.837, 63.897, 64.558
25.198, 63.895, 63.273
25.565, 63.871, 62.272
25.937, 63.859, 61.544
26.314, 63.882, 60.923
26.697, 63.935, 60.201
27.085, 63.995, 59.272
27.479, 64.037, 58.188
27.879, 64.052, 57.089
28.284, 64.052, 56.082
28.696, 64.049, 55.175
29.113, 64.051, 54.316
29.537, 64.054, 53.462
29.966, 64.053, 52.634
30.402, 64.048, 51.875
30.844, 64.048, 51.196
31.293, 64.056, 50.560
31.748, 64.072, 49.929
32.210, 64.093, 49.298
32.678, 64.119, 48.663
33.154, 64.150, 47.981
33.636, 64.178, 47.205
34.125, 64.184, 46.379
34.621, 64.168, 45.653
35.125, 64.152, 45.133
35.636, 64.164, 44.719
36.154, 64.203, 44.172
36.680, 64.235, 43.409
37.214, 64.233, 42.588
37.755, 64.209, 41.902
38.304, 64.186, 41.341
38.861, 64.161, 40.787
39.427, 64.116, 40.276
40.000, 64.050, 39.962
40.582, 63.981, 39.903
41.172, 63.919, 40.089
41.771, 63.870, 40.598
42.379, 63.872, 41.473
42.995, 63.964, 42.492
43.620, 64.149, 43.321
44.255, 64.405, 43.713
44.898, 64.700, 43.476
45.552, 64.981, 42.563
46.214, 65.209, 41.163
46.886, 65.371, 39.466
47.568, 65.445, 37.645
48.260, 65.431, 36.132
48.962, 65.407, 35.193
49.674, 65.437, 34.345
50.397, 65.459, 33.153
51.130, 65.418, 31.987
51.874, 65.364, 31.109
52.628, 65.323, 30.269
53.394, 65.270, 29.455
54.170, 65.218, 28.784
54.958, 65.175, 28.195
55.758, 65.142, 27.752
56.569, 65.140, 27.357
57.391, 65.138, 26.848
58.226, 65.118, 26.506
59.073, 65.139, 26.294
59.932, 65.175, 25.679
60.804, 65.134, 24.902
61.688, 65.074, 24.613
62.586, 65.088, 24.306
63.496, 65.085, 23.552
64.420, 65.043, 23.032
65.357, 65.041, 22.614
66.307, 65.026, 22.101
67.272, 65.015, 21.794
68.250, 65.018, 21.347
69.243, 64.984, 20.843
70.250, 64.937, 20.484
71.272, 64.905, 20.132
72.309, 64.877, 19.743
73.360, 64.893, 19.313
74.427, 64.881, 18.335
75.510, 64.753, 18.038
76.608, 64.761, 18.513
77.723, 64.812, 18.272
78.853, 64.783, 17.985
80.000, 64.738, 17.978
81.164, 64.737, 17.867
82.344, 64.693, 17.393
83.542, 64.657, 17.354
84.757, 64.688, 16.978
85.990, 64.685, 16.534
87.241, 64.664, 16.069
88.510, 64.607, 16.118
89.797, 64.620, 16.187
91.103, 64.606, 16.097
92.428, 64.601, 15.941
93.773, 64.579, 15.736
95.137, 64.564, 15.534
96.520, 64.563, 15.250
97.924, 64.543, 14.971
99.349, 64.534, 14.666
100.794, 64.491, 14.691
102.260, 64.504, 14.800
103.747, 64.502, 14.829
105.256, 64.489, 14.825
106.787, 64.469, 14.677
108.340, 64.441, 14.536
109.916, 64.457, 14.416
111.515, 64.502, 13.968
113.137, 64.467, 13.643
114.783, 64.461, 14.007
116.452, 64.498, 14.020
118.146, 64.482, 13.962
119.865, 64.473, 13.849
121.608, 64.461, 13.730
123.377, 64.433, 13.640
125.171, 64.459, 13.817
126.992, 64.449, 13.489
128.839, 64.412, 13.410
130.713, 64.395, 13.415
132.615, 64.388, 13.369
134.543, 64.396, 13.332
136.500, 64.390, 13.169
138.486, 64.375, 13.050
140.500, 64.361, 13.027
142.544, 64.359, 13.036
144.617, 64.347, 13.076
146.721, 64.335, 13.107
148.855, 64.336, 13.041
151.020, 64.331, 13.048
153.217, 64.343, 12.967
155.445, 64.340, 13.020
157.706, 64.340, 13.046
160.000, 64.337, 13.093
162.327, 64.347, 13.118
164.688, 64.362, 13.049
167.084, 64.366, 12.976
169.514, 64.367, 13.001
171.980, 64.366, 13.104
174.481, 64.377, 13.156
177.019, 64.396, 13.213
179.594, 64.407, 13.171
182.206, 64.395, 13.122
184.856, 64.392, 13.109
187.545, 64.401, 13.114
190.273, 64.405, 13.164
193.041, 64.395, 13.233
195.849, 64.416, 13.217
198.697, 64.426, 13.095
201.587, 64.425, 13.143
204.520, 64.441, 13.236
207.494, 64.454, 13.332
210.512, 64.467, 13.425
213.574, 64.473, 13.341
216.681, 64.482, 13.329
219.833, 64.498, 13.378
223.030, 64.522, 13.425
226.274, 64.524, 13.410
229.565, 64.531, 13.450
232.905, 64.539, 13.339
236.292, 64.551, 13.280
239.729, 64.547, 13.304
243.216, 64.543, 13.381
246.754, 64.543, 13.405
250.343, 64.532, 13.577
253.984, 64.539, 13.793
257.678, 64.550, 13.936
261.426, 64.574, 14.051
265.229, 64.619, 14.237
269.087, 64.643, 14.407
273.001, 64.671, 14.508
276.972, 64.719, 14.474
281.000, 64.765, 14.414
285.088, 64.813, 14.490
289.234, 64.866, 14.423
293.441, 64.923, 14.302
297.710, 64.982, 14.111
302.040, 65.032, 13.806
306.433, 65.079, 13.441
310.890, 65.134, 13.005
315.412, 65.172, 12.442
320.000, 65.186, 11.681
324.655, 65.184, 10.783
329.377, 65.137, 9.740
334.168, 65.029, 8.665
339.028, 64.838, 7.737
343.959, 64.565, 7.254
348.962, 64.266, 7.608
354.038, 64.017, 8.799
359.188, 63.864, 10.420
364.412, 63.814, 12.045
369.713, 63.827, 13.494
375.090, 63.883, 14.637
380.546, 63.959, 15.578
386.081, 64.048, 16.343
391.697, 64.123, 16.905
397.395, 64.200, 17.295
403.175, 64.280, 17.586
409.039, 64.347, 17.915
414.989, 64.393, 18.127
421.025, 64.448, 18.395
427.149, 64.497, 18.628
433.362, 64.538, 18.812
439.665, 64.582, 19.016
446.060, 64.626, 19.314
452.548, 64.666, 19.620
459.131, 64.713, 19.859
465.809, 64.773, 20.145
472.584, 64.832, 20.375
479.458, 64.879, 20.560
486.432, 64.943, 20.780
493.507, 65.013, 20.866
500.686, 65.051, 21.046
507.968, 65.105, 21.252
515.357, 65.186, 21.391
522.853, 65.275, 21.387
530.458, 65.336, 21.252
538.174, 65.383, 21.028
546.002, 65.409, 20.742
553.943, 65.396, 20.519
562.001, 65.376, 20.658
570.175, 65.363, 20.888
578.469, 65.351, 21.214
586.883, 65.371, 21.537
595.419, 65.400, 21.952
604.080, 65.430, 22.385
612.866, 65.477, 22.765
621.780, 65.537, 23.121
630.824, 65.609, 23.499
640.000, 65.685, 23.788
649.309, 65.779, 23.995
658.753, 65.872, 24.090
668.335, 65.948, 24.016
678.056, 66.016, 23.822
687.919, 66.054, 23.397
697.925, 66.009, 23.119
708.076, 65.917, 23.385
718.376, 65.877, 24.321
728.825, 65.945, 25.409
739.426, 66.064, 26.065
750.181, 66.171, 26.658
761.093, 66.305, 27.043
772.163, 66.446, 27.261
783.394, 66.559, 27.240
794.789, 66.656, 27.321
806.349, 66.740, 27.460
818.078, 66.862, 27.695
829.977, 66.985, 27.789
842.050, 67.114, 27.764
854.297, 67.226, 27.515
866.724, 67.299, 27.512
879.330, 67.404, 27.548
892.120, 67.528, 27.670
905.097, 67.691, 27.475
918.262, 67.833, 26.937
931.618, 67.930, 26.295
945.169, 67.981, 25.743
958.917, 68.027, 25.427
972.864, 68.115, 25.057
987.015, 68.133, 24.379
1001.371, 68.102, 24.190
1015.937, 68.100, 24.452
1030.714, 68.144, 24.762
1045.706, 68.222, 25.028
1060.916, 68.317, 25.125
1076.347, 68.409, 25.369
1092.003, 68.567, 25.543
1107.887, 68.707, 25.118
1124.001, 68.771, 24.710
1140.350, 68.832, 24.863
1156.937, 68.922, 24.887
1173.765, 69.052, 24.763
1190.838, 69.227, 24.734
1208.159, 69.414, 24.474
1225.732, 69.542, 23.943
1243.561, 69.703, 23.751
1261.649, 69.940, 23.225
1280.000, 70.156, 21.688
1298.618, 70.221, 20.236
1317.507, 70.239, 18.958
1336.670, 70.282, 18.183
1356.113, 70.342, 17.032
1375.838, 70.316, 16.241
1395.850, 70.354, 15.471
1416.153, 70.370, 14.421
1436.751, 70.291, 13.751
1457.649, 70.276, 13.683
1478.851, 70.356, 13.411
1500.362, 70.390, 12.500
1522.185, 70.352, 12.376
1544.326, 70.545, 12.346
1566.789, 70.620, 10.644
1589.578, 70.548, 9.488
1612.699, 70.452, 9.172
1636.156, 70.518, 9.377
1659.955, 70.620, 8.478
1684.099, 70.651, 7.331
1708.595, 70.586, 6.419
1733.447, 70.608, 5.816
1758.661, 70.485, 4.999
1784.241, 70.496, 5.450
1810.193, 70.591, 4.389
1836.523, 70.497, 3.378
1863.236, 70.500, 3.188
1890.338, 70.421, 2.075
1917.833, 70.264, 2.189
1945.729, 70.341, 2.651
1974.030, 70.367, 1.850
2002.743, 70.316, 2.191
2031.873, 70.444, 1.844
2061.428, 70.485, 0.877
2091.412, 70.477, 0.076
2121.832, 70.458, -0.916
2152.695, 70.305, -1.071
2184.007, 70.395, -1.101
2215.774, 70.359, -2.072
2248.003, 70.333, -2.778
2280.701, 70.193, -3.760
2313.874, 70.003, -3.911
2347.530, 69.835, -2.947
2381.676, 69.869, -1.487
2416.318, 70.119, -1.449
2451.464, 70.118, -2.948
2487.122, 69.907, -3.494
2523.298, 69.704, -1.534
2560.000, 69.968, 0.156
2597.236, 70.140, 0.370
2635.014, 70.380, 1.570
2673.341, 70.893, 0.808
2712.226, 71.135, -2.026
2751.676, 71.077, -4.889
2791.700, 70.789, -4.969
2832.306, 70.995, -4.417
2873.503, 71.070, -5.544
2915.299, 71.195, -5.768
2957.703, 71.499, -6.221
3000.724, 71.861, -9.016
3044.370, 71.955, -13.079
3088.652, 71.789, -16.788
3133.577, 71.521, -19.608
3179.156, 71.197, -21.782
3225.398, 70.911, -23.647
3272.312, 70.548, -25.436
3319.909, 70.221, -27.663
3368.198, 69.482, -30.042
3417.190, 68.636, -28.585
3466.894, 68.132, -26.475
3517.321, 67.592, -24.160
3568.482, 67.167, -20.723
3620.387, 66.871, -16.942
3673.046, 66.683, -12.517
3726.472, 66.629, -7.588
3780.675, 66.821, -1.397
3835.666, 67.438, 4.224
3891.457, 68.391, 7.957
3948.060, 69.331, 8.642
4005.486, 70.166, 8.916
4063.747, 71.147, 8.298
4122.855, 72.272, 5.191
4182.824, 73.061, -1.553
4243.664, 73.356, -9.064
4305.390, 73.282, -16.036
4368.013, 72.919, -21.764
4431.547, 72.357, -25.645
4496.005, 71.801, -27.459
4561.401, 71.310, -28.086
4627.749, 71.017, -27.840
4695.061, 70.687, -28.121
4763.352, 70.376, -26.233
4832.637, 70.449, -23.795
4902.929, 70.709, -23.031
4974.244, 70.949, -22.856
5046.596, 71.187, -23.121
5120.000, 71.406, -23.260
5194.472, 71.754, -22.755
5270.027, 72.407, -22.717
5346.682, 73.191, -24.891
5424.451, 73.975, -28.668
5503.352, 74.916, -34.577
5583.399, 75.542, -45.072
5664.612, 75.468, -57.347
5747.006, 74.660, -67.755
5830.598, 73.697, -74.491
5915.406, 72.784, -81.837
6001.447, 71.344, -89.177
6088.740, 69.078, -89.651
6177.303, 67.827, -82.121
6267.154, 67.766, -78.572
6358.312, 67.264, -78.759
6450.796, 66.912, -75.079
6544.625, 67.102, -74.692
6639.818, 67.296, -76.025
6736.397, 67.411, -79.103
6834.380, 67.309, -85.909
6933.789, 66.286, -93.153
7034.643, 64.564, -93.073
7136.964, 63.771, -88.787
7240.773, 63.782, -87.680
7346.093, 63.285, -90.170
7452.944, 62.454, -91.260
7561.350, 61.444, -88.183
7671.332, 61.450, -81.286
7782.915, 62.517, -77.387
7896.120, 64.222, -82.477
8010.971, 65.071, -98.176
8127.493, 64.571, -114.050
8245.711, 64.124, -129.099
8365.647, 63.244, -146.868
8487.328, 61.931, -163.671
8610.779, 60.976, -179.536
8736.026, 60.392, 162.162
8863.095, 60.928, 148.783
8992.011, 62.607, 122.512
9122.803, 61.889, 92.754
9255.497, 60.248, 84.670
9390.121, 61.972, 87.701
9526.704, 64.531, 74.358
9665.273, 65.708, 53.464
9805.857, 65.496, 35.117
9948.487, 64.966, 21.917
10093.191, 64.001, 11.084
10240.000, 62.792, 3.852
10388.944, 61.049, 1.461
10540.055, 59.693, 7.173
10693.363, 59.366, 15.867
10848.902, 60.024, 22.732
11006.703, 60.982, 26.302
11166.799, 62.512, 27.920
11329.224, 64.031, 21.628
11494.012, 64.693, 10.934
11661.195, 64.514, 0.606
11830.812, 64.032, -6.776
12002.895, 63.520, -14.099
12177.480, 62.641, -23.653
12354.606, 60.637, -31.575
12534.309, 58.016, -30.829
12716.624, 55.447, -25.176
12901.592, 52.418, -12.554
13089.250, 50.810, 35.540
13279.637, 57.572, 72.884
13472.794, 62.191, 64.142
13668.760, 64.669, 46.281
13867.577, 65.712, 28.079
14069.285, 65.926, 11.574
14273.928, 65.314, -5.681
14481.547, 63.303, -18.533
14692.186, 60.774, -21.407
14905.889, 58.529, -21.440
15122.700, 55.170, -11.414
15342.664, 53.702, 19.800
15565.829, 55.781, 39.647
15792.239, 57.831, 51.246
16021.942, 61.260, 58.878
16254.986, 64.314, 50.956
16491.422, 65.843, 35.424
16731.295, 66.406, 19.494
16974.656, 65.876, 3.094
17221.559, 64.049, -7.541
17472.053, 61.624, -7.098
17726.189, 60.029, 7.418
17984.021, 61.760, 22.169
18245.605, 64.149, 19.320
18510.994, 65.291, 6.636
18780.242, 65.314, -9.184
19053.408, 63.760, -23.254
19330.547, 61.154, -25.906
19611.715, 58.907, -16.386
19896.975, 58.564, -0.053
