* Measurement data measured by REW V5.19
* Source: ASIO MOTU M Series, In 1
* Format: 1M Log Swept Sine, 2 sweeps at -3.0 dBFS  With no timing reference
* Dated: 26 Sep, 2020 5:29:11 PM
* REW Settings:
*  C-weighting compensation: Off
*  Target level: 75.0 dB
* Note: ; 
* Measurement: Sep 26 17:29:11
* Smoothing: None
* Frequency Step: 1/48 octave
* Start Frequency: 10.1 Hz
*
* Freq(Hz), SPL(dB), Phase(degrees)
10.145, 59.387, 111.688
10.293, 59.515, 109.547
10.443, 59.644, 107.219
10.595, 59.741, 105.158
10.749, 59.823, 103.172
10.905, 59.893, 101.322
11.064, 59.955, 99.602
11.225, 60.018, 98.043
11.388, 60.082, 96.634
11.554, 60.158, 95.342
11.722, 60.244, 94.163
11.892, 60.344, 93.017
12.065, 60.456, 91.904
12.241, 60.574, 90.753
12.419, 60.695, 89.570
12.599, 60.809, 88.330
12.782, 60.912, 87.058
12.968, 60.997, 85.773
13.157, 61.063, 84.524
13.348, 61.108, 83.344
13.543, 61.140, 82.286
13.740, 61.160, 81.368
13.939, 61.183, 80.601
14.142, 61.212, 79.954
14.348, 61.260, 79.390
14.557, 61.326, 78.807
14.768, 61.410, 78.162
14.983, 61.504, 77.359
15.201, 61.596, 76.399
15.422, 61.676, 75.268
15.646, 61.733, 74.042
15.874, 61.768, 72.787
16.105, 61.780, 71.574
16.339, 61.783, 70.480
16.577, 61.791, 69.494
16.818, 61.813, 68.594
17.063, 61.860, 67.684
17.311, 61.926, 66.666
17.563, 62.000, 65.505
17.818, 62.068, 64.194
18.077, 62.116, 62.820
18.340, 62.143, 61.509
18.607, 62.162, 60.347
18.877, 62.187, 59.368
19.152, 62.236, 58.523
19.431, 62.314, 57.663
19.713, 62.403, 56.675
20.000, 62.479, 55.558
20.291, 62.523, 54.424
20.586, 62.531, 53.465
20.885, 62.524, 52.848
21.189, 62.542, 52.568
21.497, 62.614, 52.361
21.810, 62.720, 51.861
22.127, 62.799, 50.902
22.449, 62.779, 49.694
22.776, 62.626, 48.826
23.107, 62.388, 49.038
23.443, 62.217, 50.703
23.784, 62.290, 53.188
24.130, 62.656, 54.959
24.481, 63.158, 54.764
24.837, 63.566, 52.522
25.198, 63.724, 49.108
25.565, 63.595, 45.746
25.937, 63.264, 43.532
26.314, 62.911, 42.950
26.697, 62.721, 43.422
27.085, 62.733, 43.653
27.479, 62.816, 42.836
27.879, 62.822, 41.252
28.284, 62.718, 39.731
28.696, 62.577, 38.835
29.113, 62.498, 38.455
29.537, 62.508, 38.028
29.966, 62.547, 37.231
30.402, 62.556, 36.247
30.844, 62.535, 35.426
31.293, 62.520, 34.870
31.748, 62.531, 34.423
32.210, 62.554, 33.946
32.678, 62.568, 33.458
33.154, 62.570, 33.030
33.636, 62.561, 32.707
34.125, 62.550, 32.537
34.621, 62.561, 32.494
35.125, 62.607, 32.336
35.636, 62.655, 31.808
36.154, 62.645, 31.024
36.680, 62.574, 30.427
37.214, 62.505, 30.226
37.755, 62.489, 30.071
38.304, 62.493, 29.593
38.861, 62.457, 28.873
39.427, 62.366, 28.247
40.000, 62.246, 28.023
40.582, 62.162, 28.373
41.172, 62.201, 28.864
41.771, 62.328, 28.555
42.379, 62.356, 27.386
42.995, 62.232, 26.778
43.620, 62.195, 27.361
44.255, 62.376, 27.401
44.898, 62.508, 25.828
45.552, 62.397, 24.270
46.214, 62.248, 24.126
46.886, 62.252, 24.259
47.568, 62.246, 23.813
48.260, 62.169, 23.924
48.962, 62.215, 24.631
49.674, 62.358, 24.505
50.397, 62.388, 23.720
51.130, 62.315, 23.398
51.874, 62.264, 23.555
52.628, 62.254, 23.627
53.394, 62.224, 23.333
54.170, 62.105, 23.062
54.958, 61.979, 23.496
55.758, 61.971, 23.904
56.569, 61.929, 23.574
57.391, 61.793, 23.832
58.226, 61.811, 24.745
59.073, 61.944, 24.439
59.932, 61.892, 23.310
60.804, 61.681, 23.257
61.688, 61.553, 24.391
62.586, 61.540, 25.660
63.496, 61.568, 26.879
64.420, 61.618, 28.216
65.357, 61.732, 29.699
66.307, 61.878, 30.888
67.272, 62.072, 32.421
68.250, 62.434, 32.723
69.243, 62.508, 31.945
70.250, 62.577, 33.342
71.272, 62.930, 34.135
72.309, 63.322, 34.120
73.360, 63.732, 32.827
74.427, 64.010, 31.297
75.510, 64.265, 29.124
76.608, 64.309, 27.154
77.723, 64.363, 25.528
78.853, 64.320, 24.079
80.000, 64.283, 22.657
81.164, 64.180, 21.838
82.344, 64.144, 20.648
83.542, 64.055, 20.586
84.757, 64.180, 19.018
85.990, 63.899, 18.262
87.241, 63.978, 18.760
88.510, 63.950, 17.703
89.797, 63.867, 17.623
91.103, 63.870, 17.516
92.428, 63.841, 16.900
93.773, 63.769, 16.719
95.137, 63.741, 16.472
96.520, 63.730, 16.219
97.924, 63.664, 15.896
99.349, 63.694, 15.893
100.794, 63.645, 15.407
102.260, 63.618, 15.337
103.747, 63.605, 15.292
105.256, 63.577, 15.112
106.787, 63.561, 15.020
108.340, 63.522, 14.896
109.916, 63.471, 15.082
111.515, 63.563, 14.940
113.137, 63.539, 14.105
114.783, 63.400, 14.456
116.452, 63.513, 14.894
118.146, 63.489, 14.742
119.865, 63.458, 14.338
121.608, 63.461, 14.243
123.377, 63.382, 13.521
125.171, 63.618, 13.596
126.992, 63.445, 14.496
128.839, 63.549, 14.180
130.713, 63.414, 13.964
132.615, 63.460, 14.203
134.543, 63.310, 13.608
136.500, 63.548, 13.178
138.486, 63.459, 10.341
140.500, 63.220, 14.035
142.544, 63.298, 16.049
144.617, 63.508, 14.787
146.721, 63.396, 12.904
148.855, 63.414, 13.419
151.020, 63.379, 13.306
153.217, 63.388, 12.941
155.445, 63.460, 12.656
157.706, 63.489, 13.096
160.000, 63.482, 13.050
162.327, 63.438, 13.515
164.688, 63.511, 12.860
167.084, 63.389, 13.049
169.514, 63.463, 12.768
171.980, 63.385, 12.895
174.481, 63.561, 13.318
177.019, 63.545, 12.157
179.594, 63.404, 12.350
182.206, 63.417, 12.967
184.856, 63.541, 12.406
187.545, 63.581, 11.505
190.273, 63.472, 11.534
193.041, 63.431, 11.806
195.849, 63.417, 11.953
198.697, 63.412, 11.693
201.587, 63.451, 11.521
204.520, 63.461, 11.751
207.494, 63.389, 11.830
210.512, 63.330, 11.621
213.574, 63.288, 11.496
216.681, 63.268, 11.957
219.833, 63.253, 11.694
223.030, 63.181, 11.569
226.274, 63.147, 11.949
229.565, 63.125, 12.077
232.905, 63.086, 12.483
236.292, 63.071, 12.757
239.729, 63.017, 12.933
243.216, 63.006, 13.471
246.754, 62.940, 13.422
250.343, 62.984, 13.916
253.984, 62.930, 14.472
257.678, 62.974, 14.768
261.426, 62.961, 14.668
265.229, 62.966, 15.400
269.087, 62.934, 15.848
273.001, 62.986, 16.004
276.972, 63.013, 16.305
281.000, 62.993, 16.770
285.088, 62.983, 17.319
289.234, 63.006, 17.300
293.441, 63.033, 17.632
297.710, 62.990, 17.933
302.040, 63.087, 18.451
306.433, 63.120, 19.002
310.890, 63.102, 19.494
315.412, 63.120, 20.803
320.000, 63.177, 21.020
324.655, 63.227, 20.850
329.377, 63.289, 21.464
334.168, 63.438, 22.638
339.028, 63.415, 22.337
343.959, 63.570, 23.835
348.962, 63.842, 22.040
354.038, 63.597, 23.866
359.188, 63.903, 24.105
364.412, 64.036, 23.666
369.713, 64.069, 23.839
375.090, 64.097, 23.668
380.546, 64.039, 22.973
386.081, 64.002, 22.011
391.697, 64.247, 21.825
397.395, 64.312, 22.099
403.175, 64.361, 21.509
409.039, 64.531, 21.826
414.989, 64.171, 21.797
421.025, 64.587, 20.816
427.149, 64.543, 21.728
433.362, 64.504, 21.290
439.665, 64.392, 22.516
446.060, 64.487, 22.175
452.548, 64.490, 23.025
459.131, 64.371, 22.671
465.809, 64.595, 23.295
472.584, 64.744, 22.879
479.458, 64.631, 22.457
486.432, 64.700, 22.773
493.507, 64.735, 22.529
500.686, 64.877, 22.125
507.968, 64.772, 21.972
515.357, 64.818, 22.683
522.853, 64.745, 20.145
530.458, 64.882, 23.712
538.174, 65.028, 22.714
546.002, 64.875, 23.029
553.943, 64.891, 24.267
562.001, 65.039, 23.946
570.175, 64.990, 23.502
578.469, 65.003, 24.104
586.883, 65.079, 24.859
595.419, 65.153, 24.821
604.080, 65.194, 24.295
612.866, 65.164, 24.885
621.780, 65.220, 25.413
630.824, 65.400, 24.927
640.000, 65.246, 25.344
649.309, 65.392, 26.372
658.753, 65.346, 26.577
668.335, 65.147, 27.308
678.056, 65.442, 28.373
687.919, 65.754, 29.101
697.925, 65.725, 29.125
708.076, 66.007, 28.677
718.376, 66.098, 30.122
728.825, 66.351, 29.913
739.426, 66.472, 28.286
750.181, 66.492, 28.853
761.093, 66.688, 29.522
772.163, 66.793, 29.026
783.394, 66.922, 28.148
794.789, 67.029, 28.323
806.349, 66.985, 27.236
818.078, 67.041, 27.725
829.977, 67.284, 27.324
842.050, 67.335, 27.124
854.297, 67.389, 27.079
866.724, 67.412, 25.913
879.330, 67.401, 26.933
892.120, 67.597, 26.992
905.097, 67.713, 26.799
918.262, 67.793, 26.673
931.618, 67.900, 26.338
945.169, 68.013, 25.962
958.917, 68.085, 25.824
972.864, 68.244, 25.449
987.015, 68.242, 24.481
1001.371, 68.207, 24.426
1015.937, 68.319, 24.627
1030.714, 68.488, 25.606
1045.706, 68.618, 25.745
1060.916, 69.006, 25.350
1076.347, 69.250, 23.644
1092.003, 69.239, 22.393
1107.887, 69.368, 21.259
1124.001, 69.393, 21.528
1140.350, 69.585, 21.436
1156.937, 69.657, 20.474
1173.765, 69.879, 18.731
1190.838, 70.173, 17.604
1208.159, 70.193, 15.974
1225.732, 70.263, 13.840
1243.561, 70.426, 13.808
1261.649, 70.441, 10.661
1280.000, 70.536, 8.348
1298.618, 70.324, 6.469
1317.507, 70.161, 4.812
1336.670, 69.993, 3.701
1356.113, 69.783, 3.705
1375.838, 69.788, 3.781
1395.850, 69.830, 4.214
1416.153, 70.164, 1.565
1436.751, 70.029, -1.286
1457.649, 69.541, -1.954
1478.851, 69.606, -2.228
1500.362, 69.602, -4.457
1522.185, 69.449, -7.654
1544.326, 68.864, -10.333
1566.789, 68.490, -8.083
1589.578, 68.626, -8.977
1612.699, 68.117, -8.825
1636.156, 67.830, -8.000
1659.955, 67.417, -9.633
1684.099, 67.390, -6.942
1708.595, 67.292, -6.914
1733.447, 67.064, -6.064
1758.661, 66.887, -6.645
1784.241, 66.523, -5.919
1810.193, 66.712, -2.341
1836.523, 66.708, -1.797
1863.236, 66.412, -1.765
1890.338, 66.565, 0.278
1917.833, 66.590, -0.368
1945.729, 66.569, 0.956
1974.030, 66.352, -2.082
2002.743, 66.113, 3.299
2031.873, 66.306, 3.103
2061.428, 66.022, 3.223
2091.412, 66.077, 4.785
2121.832, 66.117, 4.870
2152.695, 66.295, 6.982
2184.007, 66.496, 5.345
2215.774, 66.013, 7.717
2248.003, 66.469, 9.413
2280.701, 66.392, 8.012
2313.874, 66.361, 11.668
2347.530, 66.590, 12.155
2381.676, 66.775, 11.152
2416.318, 66.505, 10.260
2451.464, 66.698, 15.122
2487.122, 66.862, 12.428
2523.298, 66.646, 14.908
2560.000, 67.179, 19.244
2597.236, 67.382, 18.258
2635.014, 67.461, 21.344
2673.341, 68.455, 21.826
2712.226, 68.603, 21.792
2751.676, 69.351, 22.548
2791.700, 70.009, 18.425
2832.306, 70.035, 17.499
2873.503, 70.916, 14.124
2915.299, 70.754, 9.420
2957.703, 71.054, 7.061
3000.724, 71.149, 4.453
3044.370, 71.319, 2.052
3088.652, 71.359, -2.145
3133.577, 71.497, -7.203
3179.156, 71.256, -11.134
3225.398, 70.974, -16.371
3272.312, 70.443, -17.906
3319.909, 70.014, -22.084
3368.198, 69.487, -23.624
3417.190, 68.828, -25.267
3466.894, 68.494, -27.155
3517.321, 67.838, -26.476
3568.482, 67.052, -26.010
3620.387, 66.690, -28.317
3673.046, 66.161, -25.931
3726.472, 65.521, -25.006
3780.675, 65.270, -22.398
3835.666, 65.090, -20.912
3891.457, 64.288, -15.799
3948.060, 63.718, -16.769
4005.486, 63.991, -12.873
4063.747, 64.360, -10.783
4122.855, 64.160, -8.988
4182.824, 63.746, -8.270
4243.664, 63.390, -9.624
4305.390, 62.777, -6.425
4368.013, 62.410, -0.410
4431.547, 62.211, 6.572
4496.005, 62.508, 13.841
4561.401, 62.998, 18.147
4627.749, 63.500, 21.849
4695.061, 64.109, 26.305
4763.352, 65.363, 28.460
4832.637, 66.164, 28.481
4902.929, 66.933, 26.264
4974.244, 67.575, 23.552
5046.596, 67.810, 20.497
5120.000, 68.249, 19.272
5194.472, 68.534, 17.781
5270.027, 68.742, 14.669
5346.682, 68.984, 12.203
5424.451, 69.261, 10.475
5503.352, 69.626, 7.899
5583.399, 69.735, 3.936
5664.612, 69.911, 0.698
5747.006, 70.045, -3.116
5830.598, 70.040, -7.351
5915.406, 69.823, -12.597
6001.447, 69.525, -16.302
6088.740, 69.315, -21.007
6177.303, 68.458, -25.062
6267.154, 67.721, -25.683
6358.312, 67.379, -27.779
6450.796, 66.618, -30.831
6544.625, 65.910, -29.107
6639.818, 65.591, -27.858
6736.397, 64.997, -26.766
6834.380, 64.767, -24.647
6933.789, 64.546, -27.656
7034.643, 63.541, -27.702
7136.964, 62.814, -25.168
7240.773, 62.407, -22.167
7346.093, 61.549, -20.586
7452.944, 61.128, -10.741
7561.350, 61.781, -6.902
7671.332, 61.929, -4.004
7782.915, 62.890, -0.778
7896.120, 63.465, -3.138
8010.971, 63.905, -3.339
8127.493, 64.861, -7.791
8245.711, 65.005, -14.235
8365.647, 65.328, -21.862
8487.328, 65.011, -30.713
8610.779, 64.160, -39.768
8736.026, 63.552, -48.242
8863.095, 61.495, -57.259
8992.011, 59.974, -65.513
9122.803, 57.945, -72.463
9255.497, 55.025, -83.669
9390.121, 51.685, -102.066
9526.704, 47.871, -140.579
9665.273, 49.937, 159.862
9805.857, 54.089, 124.933
9948.487, 57.625, 109.470
10093.191, 59.992, 95.647
10240.000, 61.866, 83.461
10388.944, 63.067, 72.681
10540.055, 64.160, 62.636
10693.363, 64.668, 51.807
10848.902, 64.663, 41.334
11006.703, 63.940, 34.815
11166.799, 63.618, 32.918
11329.224, 63.389, 31.629
11494.012, 63.540, 32.564
11661.195, 64.297, 31.676
11830.812, 65.139, 25.716
12002.895, 65.675, 17.432
12177.480, 65.752, 7.132
12354.606, 65.441, -4.033
12534.309, 64.551, -15.397
12716.624, 63.101, -24.663
12901.592, 61.267, -28.898
13089.250, 60.100, -30.187
13279.637, 59.187, -34.388
13472.794, 58.081, -43.984
13668.760, 55.314, -54.913
13867.577, 50.513, -56.196
14069.285, 45.978, -4.005
14273.928, 52.750, 11.505
14481.547, 54.713, -6.674
14692.186, 54.660, -31.755
14905.889, 52.711, -54.553
15122.700, 49.763, -77.813
15342.664, 45.247, -105.089
15565.829, 39.921, -131.063
15792.239, 33.740, -157.781
16021.942, 37.454, -151.182
16254.986, 43.186, -173.097
16491.422, 46.872, 165.489
16731.295, 49.494, 152.507
16974.656, 50.511, 141.251
17221.559, 51.056, 129.402
17472.053, 50.036, 122.207
17726.189, 49.222, 119.479
17984.021, 48.507, 125.118
18245.605, 50.472, 134.342
18510.994, 52.800, 126.230
18780.242, 53.754, 103.923
19053.408, 49.760, 84.505
19330.547, 45.488, 105.400
19611.715, 46.640, 126.546
19896.975, 47.369, 133.740
