* Measurement data measured by REW V5.19
* Source: ASIO MOTU M Series, In 1
* Format: 1M Log Swept Sine, 1 sweep at -3.0 dBFS  With no timing reference
* Dated: 7 Nov, 2021 10:01:20 PM
* REW Settings:
*  C-weighting compensation: Off
*  Target level: 75.0 dB
* Note: ; 
* Measurement: Nov 7 22:01:20
* Smoothing: 1/48 octave
* Frequency Step: 1/48 octave
* Start Frequency: 10.1 Hz
*
* Freq(Hz), SPL(dB), Phase(degrees)
10.145, 53.625, -54.818
10.293, 53.725, -55.466
10.443, 53.829, -56.325
10.595, 53.982, -57.438
10.749, 54.136, -58.576
10.905, 54.247, -59.393
11.064, 54.341, -60.076
11.225, 54.450, -60.833
11.388, 54.565, -61.600
11.554, 54.677, -62.301
11.722, 54.790, -62.949
11.892, 54.906, -63.567
12.065, 55.025, -64.156
12.241, 55.152, -64.755
12.419, 55.285, -65.356
12.599, 55.421, -65.945
12.782, 55.562, -66.546
12.968, 55.708, -67.191
13.157, 55.857, -67.872
13.348, 56.007, -68.590
13.543, 56.155, -69.349
13.740, 56.299, -70.151
13.939, 56.436, -70.973
14.142, 56.567, -71.801
14.348, 56.690, -72.611
14.557, 56.809, -73.384
14.768, 56.924, -74.110
14.983, 57.041, -74.778
15.201, 57.162, -75.404
15.422, 57.292, -76.002
15.646, 57.429, -76.608
15.874, 57.573, -77.241
16.105, 57.721, -77.924
16.339, 57.866, -78.660
16.577, 58.006, -79.431
16.818, 58.137, -80.221
17.063, 58.260, -80.992
17.311, 58.378, -81.720
17.563, 58.494, -82.400
17.818, 58.612, -83.033
18.077, 58.736, -83.647
18.340, 58.865, -84.271
18.607, 58.997, -84.924
18.877, 59.127, -85.612
19.152, 59.252, -86.325
19.431, 59.371, -87.037
19.713, 59.486, -87.728
20.000, 59.599, -88.390
20.291, 59.715, -89.035
20.586, 59.834, -89.681
20.885, 59.956, -90.353
21.189, 60.076, -91.060
21.497, 60.193, -91.795
21.810, 60.304, -92.539
22.127, 60.411, -93.275
22.449, 60.516, -93.999
22.776, 60.620, -94.718
23.107, 60.723, -95.437
23.443, 60.824, -96.154
23.784, 60.923, -96.857
24.130, 61.023, -97.539
24.481, 61.126, -98.210
24.837, 61.233, -98.898
25.198, 61.339, -99.626
25.565, 61.440, -100.389
25.937, 61.530, -101.140
26.314, 61.615, -101.829
26.697, 61.704, -102.446
27.085, 61.804, -103.047
27.479, 61.913, -103.716
27.879, 62.016, -104.492
28.284, 62.100, -105.312
28.696, 62.163, -106.059
29.113, 62.221, -106.651
29.537, 62.295, -107.131
29.966, 62.388, -107.640
30.402, 62.488, -108.282
30.844, 62.572, -109.032
31.293, 62.633, -109.759
31.748, 62.684, -110.360
32.210, 62.742, -110.854
32.678, 62.812, -111.342
33.154, 62.886, -111.881
33.636, 62.952, -112.434
34.125, 63.013, -112.936
34.621, 63.077, -113.380
35.125, 63.149, -113.812
35.636, 63.222, -114.247
36.154, 63.295, -114.646
36.680, 63.376, -114.979
37.214, 63.474, -115.286
37.755, 63.592, -115.667
38.304, 63.716, -116.183
38.861, 63.834, -116.813
39.427, 63.942, -117.494
40.000, 64.044, -118.186
40.582, 64.146, -118.913
41.172, 64.242, -119.711
41.771, 64.324, -120.563
42.379, 64.389, -121.405
42.995, 64.445, -122.204
43.620, 64.492, -122.976
44.255, 64.529, -123.714
44.898, 64.554, -124.364
45.552, 64.578, -124.903
46.214, 64.605, -125.377
46.886, 64.631, -125.813
47.568, 64.650, -126.163
48.260, 64.671, -126.376
48.962, 64.703, -126.454
49.674, 64.757, -126.431
50.397, 64.838, -126.370
51.130, 64.945, -126.350
51.874, 65.075, -126.418
52.628, 65.222, -126.603
53.394, 65.381, -126.935
54.170, 65.545, -127.406
54.958, 65.716, -128.012
55.758, 65.887, -128.841
56.569, 66.033, -129.882
57.391, 66.150, -130.963
58.226, 66.254, -132.069
59.073, 66.335, -133.256
59.932, 66.388, -134.379
60.804, 66.438, -135.425
61.688, 66.478, -136.505
62.586, 66.500, -137.544
63.496, 66.508, -138.504
64.420, 66.504, -139.320
65.357, 66.508, -139.971
66.307, 66.522, -140.589
67.272, 66.538, -141.122
68.250, 66.577, -141.638
69.243, 66.621, -142.284
70.250, 66.657, -142.977
71.272, 66.692, -143.717
72.309, 66.715, -144.495
73.360, 66.730, -145.229
74.427, 66.746, -145.941
75.510, 66.757, -146.636
76.608, 66.766, -147.294
77.723, 66.772, -147.930
78.853, 66.775, -148.530
80.000, 66.778, -149.131
81.164, 66.778, -149.721
82.344, 66.777, -150.310
83.542, 66.775, -150.891
84.757, 66.771, -151.448
85.990, 66.768, -151.977
87.241, 66.765, -152.495
88.510, 66.759, -152.997
89.797, 66.750, -153.473
91.103, 66.744, -153.925
92.428, 66.738, -154.389
93.773, 66.734, -154.844
95.137, 66.724, -155.295
96.520, 66.713, -155.684
97.924, 66.705, -156.056
99.349, 66.696, -156.459
100.794, 66.686, -156.848
102.260, 66.682, -157.243
103.747, 66.682, -157.648
105.256, 66.677, -158.048
106.787, 66.663, -158.422
108.340, 66.641, -158.730
109.916, 66.631, -159.040
111.515, 66.627, -159.399
113.137, 66.614, -159.770
114.783, 66.604, -159.916
116.452, 66.602, -160.125
118.146, 66.575, -160.385
119.865, 66.546, -160.485
121.608, 66.564, -160.892
123.377, 66.548, -161.315
125.171, 66.541, -161.577
126.992, 66.542, -161.782
128.839, 66.530, -162.006
130.713, 66.516, -162.205
132.615, 66.511, -162.405
134.543, 66.509, -162.586
136.500, 66.504, -162.734
138.486, 66.503, -162.880
140.500, 66.505, -163.105
142.544, 66.506, -163.344
144.617, 66.504, -163.559
146.721, 66.499, -163.769
148.855, 66.489, -163.980
151.020, 66.482, -164.185
153.217, 66.479, -164.374
155.445, 66.470, -164.536
157.706, 66.463, -164.692
160.000, 66.459, -164.838
162.327, 66.454, -164.974
164.688, 66.461, -165.050
167.084, 66.437, -165.313
169.514, 66.431, -165.394
171.980, 66.422, -165.563
174.481, 66.411, -165.667
177.019, 66.400, -165.799
179.594, 66.394, -165.931
182.206, 66.397, -166.024
184.856, 66.397, -166.124
187.545, 66.388, -166.250
190.273, 66.385, -166.331
193.041, 66.382, -166.421
195.849, 66.377, -166.494
198.697, 66.367, -166.576
201.587, 66.365, -166.628
204.520, 66.364, -166.775
207.494, 66.355, -166.887
210.512, 66.348, -166.905
213.574, 66.349, -166.916
216.681, 66.350, -166.958
219.833, 66.344, -166.999
223.030, 66.339, -167.029
226.274, 66.337, -167.180
229.565, 66.347, -167.225
232.905, 66.327, -167.125
236.292, 66.298, -167.018
239.729, 66.294, -166.921
243.216, 66.288, -166.930
246.754, 66.283, -166.803
250.343, 66.278, -166.594
253.984, 66.279, -166.411
257.678, 66.286, -166.167
261.426, 66.320, -165.709
265.229, 66.379, -165.283
269.087, 66.466, -165.064
273.001, 66.567, -165.043
276.972, 66.652, -165.246
281.000, 66.724, -165.511
285.088, 66.787, -165.868
289.234, 66.824, -166.281
293.441, 66.842, -166.654
297.710, 66.852, -166.919
302.040, 66.871, -167.143
306.433, 66.885, -167.406
310.890, 66.893, -167.635
315.412, 66.910, -167.656
320.000, 66.940, -167.699
324.655, 66.987, -167.828
329.377, 67.033, -168.221
334.168, 67.025, -168.513
339.028, 67.046, -168.540
343.959, 67.100, -168.777
348.962, 67.147, -169.114
354.038, 67.186, -169.442
359.188, 67.226, -169.842
364.412, 67.273, -170.227
369.713, 67.333, -170.746
375.090, 67.393, -171.471
380.546, 67.448, -172.418
386.081, 67.473, -173.631
391.697, 67.441, -174.930
397.395, 67.412, -176.253
403.175, 67.322, -177.999
409.039, 67.136, -179.991
414.989, 66.798, 178.192
421.025, 66.308, 177.113
427.149, 65.698, 177.619
433.362, 65.187, -179.786
439.665, 64.952, -176.355
446.060, 64.955, -173.257
452.548, 65.064, -171.104
459.131, 65.235, -169.468
465.809, 65.405, -168.661
472.584, 65.514, -168.053
479.458, 65.637, -167.662
486.432, 65.709, -167.465
493.507, 65.770, -167.163
500.686, 65.828, -166.970
507.968, 65.852, -166.769
515.357, 65.870, -166.316
522.853, 65.954, -165.722
530.458, 66.042, -165.510
538.174, 66.122, -165.451
546.002, 66.163, -165.577
553.943, 66.172, -165.320
562.001, 66.248, -164.973
570.175, 66.320, -164.964
578.469, 66.356, -164.937
586.883, 66.411, -164.847
595.419, 66.470, -164.911
604.080, 66.510, -164.994
612.866, 66.546, -165.107
621.780, 66.568, -165.446
630.824, 66.505, -165.629
640.000, 66.481, -165.225
649.309, 66.494, -165.004
658.753, 66.464, -164.933
668.335, 66.422, -164.336
678.056, 66.437, -163.586
687.919, 66.505, -162.723
697.925, 66.624, -162.329
708.076, 66.681, -162.441
718.376, 66.660, -161.648
728.825, 66.805, -160.782
739.426, 66.929, -160.707
750.181, 66.983, -160.278
761.093, 67.091, -159.268
772.163, 67.345, -158.056
783.394, 67.774, -157.619
794.789, 68.227, -159.100
806.349, 68.440, -161.907
818.078, 68.387, -163.980
829.977, 68.412, -165.223
842.050, 68.342, -166.973
854.297, 68.199, -167.560
866.724, 68.123, -167.939
879.330, 68.142, -168.222
892.120, 68.087, -168.753
905.097, 68.113, -168.933
918.262, 68.142, -169.887
931.618, 68.079, -170.251
945.169, 68.161, -171.161
958.917, 68.111, -172.486
972.864, 67.942, -174.288
987.015, 67.656, -174.637
1001.371, 67.418, -174.417
1015.937, 67.232, -173.855
1030.714, 67.097, -172.552
1045.706, 67.225, -171.250
1060.916, 67.340, -172.131
1076.347, 67.216, -172.737
1092.003, 67.091, -172.793
1107.887, 66.945, -172.258
1124.001, 66.965, -171.402
1140.350, 66.963, -170.901
1156.937, 67.163, -170.995
1173.765, 67.274, -172.071
1190.838, 67.298, -174.285
1208.159, 67.009, -176.615
1225.732, 66.570, -178.195
1243.561, 65.816, -178.467
1261.649, 65.134, -174.961
1280.000, 64.797, -170.450
1298.618, 64.978, -164.316
1317.507, 65.569, -162.579
1336.670, 65.843, -162.795
1356.113, 65.892, -162.972
1375.838, 65.897, -161.914
1395.850, 66.049, -161.676
1416.153, 65.971, -160.561
1436.751, 66.170, -159.345
1457.649, 66.353, -158.719
1478.851, 66.618, -158.557
1500.362, 66.829, -159.733
1522.185, 66.796, -161.387
1544.326, 66.593, -161.882
1566.789, 66.346, -161.755
1589.578, 66.289, -158.795
1612.699, 66.569, -158.435
1636.156, 66.672, -158.378
1659.955, 66.717, -158.672
1684.099, 66.781, -158.489
1708.595, 66.860, -159.325
1733.447, 66.884, -159.419
1758.661, 67.064, -160.896
1784.241, 67.176, -165.344
1810.193, 66.374, -171.534
1836.523, 64.682, -172.294
1863.236, 63.077, -163.940
1890.338, 62.564, -151.913
1917.833, 63.084, -140.907
1945.729, 64.116, -134.589
1974.030, 64.875, -131.808
2002.743, 65.606, -129.922
2031.873, 66.319, -128.054
2061.428, 67.071, -129.366
2091.412, 67.226, -130.579
2121.832, 67.418, -129.699
2152.695, 67.750, -128.900
2184.007, 67.979, -128.634
2215.774, 68.219, -125.675
2248.003, 69.102, -123.938
2280.701, 69.688, -126.673
2313.874, 69.925, -128.502
2347.530, 70.171, -128.815
2381.676, 70.533, -130.841
2416.318, 70.288, -132.354
2451.464, 70.222, -130.152
2487.122, 70.571, -127.064
2523.298, 71.307, -125.605
2560.000, 71.981, -126.985
2597.236, 72.339, -129.376
2635.014, 72.545, -129.029
2673.341, 73.437, -129.389
2712.226, 74.043, -135.618
2751.676, 73.586, -141.104
2791.700, 73.138, -138.105
2832.306, 73.927, -136.510
2873.503, 74.333, -140.650
2915.299, 74.220, -142.146
2957.703, 74.509, -141.750
3000.724, 74.942, -143.886
3044.370, 75.082, -145.764
3088.652, 75.445, -146.693
3133.577, 75.881, -149.714
3179.156, 76.151, -153.117
3225.398, 76.460, -156.973
3272.312, 76.583, -162.943
3319.909, 76.163, -168.509
3368.198, 75.605, -169.958
3417.190, 75.475, -170.985
3466.894, 75.474, -172.437
3517.321, 75.491, -176.462
3568.482, 75.038, 179.301
3620.387, 74.384, 177.247
3673.046, 73.642, 176.747
3726.472, 73.186, -179.342
3780.675, 73.417, -178.426
3835.666, 73.446, -179.846
3891.457, 73.183, 178.813
3948.060, 72.991, 178.783
4005.486, 72.742, 178.394
4063.747, 72.594, 179.188
4122.855, 72.520, 178.684
4182.824, 72.429, 179.019
4243.664, 72.357, 177.120
4305.390, 71.801, 176.746
4368.013, 71.461, 178.946
4431.547, 71.267, -177.579
4496.005, 71.657, -174.450
4561.401, 72.130, -174.396
4627.749, 72.516, -175.916
4695.061, 72.754, 179.760
4763.352, 71.977, 177.015
4832.637, 71.595, -179.166
4902.929, 71.906, -176.065
4974.244, 72.709, -176.708
5046.596, 72.801, 177.417
5120.000, 72.207, 176.078
5194.472, 72.151, 177.275
5270.027, 72.167, 177.165
5346.682, 72.347, 177.509
5424.451, 72.752, 175.807
5503.352, 72.824, 170.495
5583.399, 72.262, 167.961
5664.612, 71.876, 167.303
5747.006, 71.660, 167.120
5830.598, 71.504, 167.226
5915.406, 71.502, 165.614
6001.447, 71.095, 162.772
6088.740, 70.419, 164.302
6177.303, 70.540, 166.627
6267.154, 70.550, 164.478
6358.312, 70.165, 163.164
6450.796, 69.747, 163.972
6544.625, 69.612, 164.745
6639.818, 69.292, 165.007
6736.397, 69.139, 166.320
6834.380, 68.977, 166.523
6933.789, 68.626, 168.177
7034.643, 68.607, 170.594
7136.964, 68.603, 172.438
7240.773, 68.754, 174.774
7346.093, 69.135, 175.897
7452.944, 69.477, 175.647
7561.350, 69.732, 175.292
7671.332, 70.110, 174.746
7782.915, 70.609, 173.041
7896.120, 71.036, 169.760
8010.971, 71.523, 165.244
8127.493, 71.831, 157.785
8245.711, 71.700, 148.826
8365.647, 71.101, 139.819
8487.328, 70.275, 131.023
8610.779, 68.814, 122.040
8736.026, 66.959, 115.817
8863.095, 64.680, 110.366
8992.011, 61.511, 108.980
9122.803, 57.387, 119.624
9255.497, 53.997, 150.385
9390.121, 54.624, 178.828
9526.704, 55.424, -162.143
9665.273, 57.693, -144.431
9805.857, 59.789, -134.830
9948.487, 62.840, -131.452
10093.191, 64.264, -136.370
10240.000, 65.921, -142.682
10388.944, 65.799, -152.051
10540.055, 65.772, -152.323
10693.363, 66.140, -152.912
10848.902, 66.601, -153.189
11006.703, 67.736, -154.585
11166.799, 68.657, -166.516
11329.224, 67.252, -171.310
11494.012, 68.111, -170.418
11661.195, 67.807, 177.767
11830.812, 66.509, 175.268
12002.895, 66.081, 178.356
12177.480, 66.782, 178.157
12354.606, 67.173, 167.695
12534.309, 66.539, 159.020
12716.624, 64.966, 144.706
12901.592, 62.011, 156.243
13089.250, 61.654, 158.084
13279.637, 60.734, 161.087
13472.794, 60.446, 163.389
13668.760, 60.150, 163.591
13867.577, 59.778, 160.536
14069.285, 59.093, 154.763
14273.928, 57.411, 143.438
14481.547, 52.956, 146.934
14692.186, 50.457, -178.771
14905.889, 51.417, -167.990
15122.700, 52.183, -174.643
15342.664, 49.623, 140.474
15565.829, 47.865, 44.504
15792.239, 53.802, -35.351
16021.942, 57.362, -56.649
16254.986, 60.079, -69.603
16491.422, 61.575, -80.634
16731.295, 63.109, -89.611
16974.656, 64.023, -102.591
17221.559, 64.041, -113.723
17472.053, 64.658, -122.686
17726.189, 64.539, -139.938
17984.021, 62.420, -157.200
18245.605, 58.550, -149.998
18510.994, 58.438, -131.724
18780.242, 59.286, -135.397
19053.408, 58.496, -136.228
19330.547, 58.446, -133.190
19611.715, 58.615, -134.888
19896.975, 58.148, -136.855
