* Measurement data measured by REW V5.19
* Source: ASIO MOTU M Series, In 1
* Format: 1M Log Swept Sine, 2 sweeps at -3.0 dBFS  With no timing reference
* Dated: 19 Sep, 2020 2:58:27 PM
* REW Settings:
*  C-weighting compensation: Off
*  Target level: 75.0 dB
* Note: ; 
* Measurement: Sep 19 14:58:27
* Smoothing: None
* Frequency Step: 1/48 octave
* Start Frequency: 10.1 Hz
*
* Freq(Hz), SPL(dB), Phase(degrees)
10.145, 47.043, -47.237
10.293, 46.679, -47.298
10.443, 46.317, -46.500
10.595, 46.057, -44.080
10.749, 45.937, -40.950
10.905, 46.079, -37.632
11.064, 46.419, -34.375
11.225, 46.903, -32.356
11.388, 47.510, -31.353
11.554, 48.086, -31.487
11.722, 48.643, -32.678
11.892, 49.108, -34.418
12.065, 49.488, -36.699
12.241, 49.778, -39.052
12.419, 49.986, -41.464
12.599, 50.137, -43.637
12.782, 50.246, -45.582
12.968, 50.344, -47.189
13.157, 50.449, -48.570
13.348, 50.581, -49.752
13.543, 50.736, -50.937
13.740, 50.915, -52.172
13.939, 51.090, -53.566
14.142, 51.250, -55.056
14.348, 51.368, -56.590
14.557, 51.442, -57.935
14.768, 51.470, -58.981
14.983, 51.476, -59.453
15.201, 51.500, -59.331
15.422, 51.575, -58.559
15.646, 51.761, -57.455
15.874, 52.056, -56.343
16.105, 52.463, -55.572
16.339, 52.919, -55.502
16.577, 53.375, -56.117
16.818, 53.785, -57.375
17.063, 54.107, -59.027
17.311, 54.332, -60.773
17.563, 54.465, -62.382
17.818, 54.526, -63.630
18.077, 54.553, -64.367
18.340, 54.589, -64.642
18.607, 54.663, -64.606
18.877, 54.789, -64.470
19.152, 54.961, -64.473
19.431, 55.152, -64.744
19.713, 55.340, -65.264
20.000, 55.513, -65.950
20.291, 55.670, -66.706
20.586, 55.818, -67.473
20.885, 55.970, -68.249
21.189, 56.130, -69.082
21.497, 56.294, -70.010
21.810, 56.452, -71.013
22.127, 56.601, -72.019
22.449, 56.746, -72.945
22.776, 56.900, -73.750
23.107, 57.075, -74.466
23.443, 57.278, -75.184
23.784, 57.500, -76.000
24.130, 57.724, -76.953
24.481, 57.932, -78.005
24.837, 58.111, -79.057
25.198, 58.262, -79.991
25.565, 58.395, -80.710
25.937, 58.528, -81.184
26.314, 58.682, -81.486
26.697, 58.866, -81.788
27.085, 59.067, -82.290
27.479, 59.252, -83.065
27.879, 59.390, -83.977
28.284, 59.480, -84.757
28.696, 59.564, -85.248
29.113, 59.689, -85.604
29.537, 59.860, -86.221
29.966, 60.022, -87.308
30.402, 60.121, -88.617
30.844, 60.168, -89.653
31.293, 60.248, -90.262
31.748, 60.416, -90.921
32.210, 60.619, -92.181
32.678, 60.749, -93.843
33.154, 60.797, -95.100
33.636, 60.897, -95.579
34.125, 61.159, -96.169
34.621, 61.467, -98.016
35.125, 61.578, -100.835
35.636, 61.408, -102.899
36.154, 61.179, -102.568
36.680, 61.255, -100.589
37.214, 61.684, -99.666
37.755, 62.126, -100.949
38.304, 62.335, -103.293
38.861, 62.334, -105.091
39.427, 62.291, -105.846
40.000, 62.323, -106.065
40.582, 62.418, -106.388
41.172, 62.535, -106.885
41.771, 62.682, -107.520
42.379, 62.863, -108.639
42.995, 62.983, -110.433
43.620, 62.969, -112.100
44.255, 62.946, -112.819
44.898, 63.072, -113.429
45.552, 63.206, -115.096
46.214, 63.142, -116.761
46.886, 63.049, -116.836
47.568, 63.194, -116.406
48.260, 63.433, -117.213
48.962, 63.553, -118.581
49.674, 63.623, -119.639
50.397, 63.702, -120.749
51.130, 63.740, -121.997
51.874, 63.746, -123.100
52.628, 63.750, -124.041
53.394, 63.773, -124.971
54.170, 63.775, -126.048
54.958, 63.727, -126.748
55.758, 63.747, -126.899
56.569, 63.830, -127.465
57.391, 63.836, -128.162
58.226, 63.832, -128.385
59.073, 63.848, -128.567
59.932, 63.873, -128.494
60.804, 63.991, -128.569
61.688, 64.112, -129.333
62.586, 64.189, -130.319
63.496, 64.236, -131.230
64.420, 64.328, -131.812
65.357, 64.469, -132.834
66.307, 64.538, -133.704
67.272, 64.713, -134.524
68.250, 64.744, -136.497
69.243, 64.599, -136.991
70.250, 64.627, -137.229
71.272, 64.593, -137.691
72.309, 64.699, -138.126
73.360, 64.714, -139.636
74.427, 64.729, -140.340
75.510, 64.768, -141.764
76.608, 64.732, -142.384
77.723, 64.797, -143.161
78.853, 64.773, -143.976
80.000, 64.763, -144.428
81.164, 64.772, -145.195
82.344, 64.688, -145.911
83.542, 64.704, -146.391
84.757, 64.613, -147.198
85.990, 64.684, -147.301
87.241, 64.630, -148.460
88.510, 64.640, -148.181
89.797, 64.691, -149.001
91.103, 64.652, -149.443
92.428, 64.661, -149.739
93.773, 64.648, -150.109
95.137, 64.726, -150.417
96.520, 64.726, -151.445
97.924, 64.679, -151.881
99.349, 64.677, -152.314
100.794, 64.668, -152.820
102.260, 64.637, -153.518
103.747, 64.616, -153.798
105.256, 64.618, -154.324
106.787, 64.618, -154.733
108.340, 64.596, -155.403
109.916, 64.540, -155.718
111.515, 64.525, -155.927
113.137, 64.473, -156.583
114.783, 64.459, -156.815
116.452, 64.466, -157.266
118.146, 64.393, -158.190
119.865, 64.364, -158.426
121.608, 64.279, -158.439
123.377, 64.252, -158.458
125.171, 64.238, -158.867
126.992, 64.125, -158.906
128.839, 64.080, -160.034
130.713, 64.069, -159.318
132.615, 64.059, -159.937
134.543, 64.078, -159.992
136.500, 64.007, -160.242
138.486, 63.999, -160.343
140.500, 63.896, -160.384
142.544, 63.825, -160.666
144.617, 63.837, -161.241
146.721, 63.717, -160.801
148.855, 63.642, -160.692
151.020, 63.561, -160.409
153.217, 63.529, -160.644
155.445, 63.476, -160.099
157.706, 63.450, -159.745
160.000, 63.428, -159.581
162.327, 63.399, -159.164
164.688, 63.382, -159.010
167.084, 63.385, -158.721
169.514, 63.348, -158.547
171.980, 63.323, -158.100
174.481, 63.276, -157.731
177.019, 63.319, -157.197
179.594, 63.343, -156.651
182.206, 63.321, -156.850
184.856, 63.346, -156.297
187.545, 63.391, -155.539
190.273, 63.396, -154.916
193.041, 63.391, -154.253
195.849, 63.421, -153.922
198.697, 63.475, -153.269
201.587, 63.533, -152.720
204.520, 63.599, -151.923
207.494, 63.725, -151.347
210.512, 63.888, -150.967
213.574, 63.978, -150.282
216.681, 64.138, -149.763
219.833, 64.342, -149.553
223.030, 64.565, -149.728
226.274, 64.792, -150.162
229.565, 64.967, -150.580
232.905, 65.123, -151.605
236.292, 65.253, -152.695
239.729, 65.354, -153.840
243.216, 65.391, -155.089
246.754, 65.399, -156.103
250.343, 65.402, -157.122
253.984, 65.381, -158.127
257.678, 65.324, -158.969
261.426, 65.275, -159.668
265.229, 65.195, -160.260
269.087, 65.134, -160.809
273.001, 65.032, -161.323
276.972, 64.929, -161.533
281.000, 64.863, -161.561
285.088, 64.793, -161.568
289.234, 64.719, -161.816
293.441, 64.652, -161.713
297.710, 64.579, -161.767
302.040, 64.526, -161.641
306.433, 64.465, -161.453
310.890, 64.397, -161.337
315.412, 64.353, -161.076
320.000, 64.287, -160.892
324.655, 64.240, -160.630
329.377, 64.190, -160.200
334.168, 64.141, -159.807
339.028, 64.135, -159.346
343.959, 64.128, -158.870
348.962, 64.111, -158.645
354.038, 64.114, -158.265
359.188, 64.090, -158.028
364.412, 64.077, -157.647
369.713, 64.056, -157.177
375.090, 64.047, -156.675
380.546, 64.051, -156.229
386.081, 64.066, -155.902
391.697, 64.089, -155.526
397.395, 64.084, -155.207
403.175, 64.101, -154.760
409.039, 64.120, -154.382
414.989, 64.154, -153.976
421.025, 64.175, -153.718
427.149, 64.203, -153.472
433.362, 64.209, -153.315
439.665, 64.201, -153.172
446.060, 64.149, -152.557
452.548, 64.168, -151.817
459.131, 64.198, -151.375
465.809, 64.246, -150.976
472.584, 64.288, -150.798
479.458, 64.288, -150.375
486.432, 64.303, -149.911
493.507, 64.315, -149.576
500.686, 64.332, -149.034
507.968, 64.353, -148.630
515.357, 64.369, -148.010
522.853, 64.387, -147.471
530.458, 64.432, -146.949
538.174, 64.465, -146.456
546.002, 64.517, -145.979
553.943, 64.547, -145.462
562.001, 64.558, -144.848
570.175, 64.626, -144.049
578.469, 64.709, -143.607
586.883, 64.777, -143.116
595.419, 64.848, -142.592
604.080, 64.905, -142.255
612.866, 64.973, -141.688
621.780, 65.028, -141.315
630.824, 65.101, -140.788
640.000, 65.180, -140.425
649.309, 65.247, -140.033
658.753, 65.330, -139.627
668.335, 65.377, -139.270
678.056, 65.456, -138.948
687.919, 65.509, -138.628
697.925, 65.540, -138.039
708.076, 65.613, -137.380
718.376, 65.721, -136.943
728.825, 65.816, -136.583
739.426, 65.884, -136.163
750.181, 65.983, -135.804
761.093, 66.066, -135.491
772.163, 66.125, -135.215
783.394, 66.190, -134.759
794.789, 66.267, -134.314
806.349, 66.338, -133.704
818.078, 66.439, -133.194
829.977, 66.555, -132.711
842.050, 66.637, -132.412
854.297, 66.738, -131.960
866.724, 66.846, -131.477
879.330, 66.962, -131.184
892.120, 67.042, -130.906
905.097, 67.158, -130.430
918.262, 67.260, -130.038
931.618, 67.385, -129.636
945.169, 67.472, -129.400
958.917, 67.589, -129.037
972.864, 67.695, -128.550
987.015, 67.825, -128.375
1001.371, 67.943, -127.870
1015.937, 68.056, -127.641
1030.714, 68.194, -127.261
1045.706, 68.300, -126.920
1060.916, 68.436, -126.569
1076.347, 68.561, -126.081
1092.003, 68.693, -125.950
1107.887, 68.830, -125.517
1124.001, 69.009, -125.019
1140.350, 69.179, -124.639
1156.937, 69.395, -124.361
1173.765, 69.650, -124.306
1190.838, 69.873, -124.790
1208.159, 70.040, -125.865
1225.732, 70.091, -126.173
1243.561, 70.144, -126.052
1261.649, 70.285, -126.067
1280.000, 70.418, -125.812
1298.618, 70.535, -126.050
1317.507, 70.759, -126.107
1336.670, 70.898, -126.561
1356.113, 70.968, -126.722
1375.838, 71.121, -126.688
1395.850, 71.315, -127.355
1416.153, 71.413, -127.982
1436.751, 71.529, -127.774
1457.649, 71.670, -128.356
1478.851, 71.677, -129.054
1500.362, 71.889, -129.591
1522.185, 71.924, -130.225
1544.326, 71.886, -130.445
1566.789, 71.958, -130.777
1589.578, 72.080, -130.585
1612.699, 72.141, -131.173
1636.156, 72.076, -131.625
1659.955, 72.241, -131.346
1684.099, 72.236, -131.268
1708.595, 72.445, -131.327
1733.447, 72.339, -131.834
1758.661, 72.433, -131.203
1784.241, 72.378, -129.748
1810.193, 72.524, -130.675
1836.523, 72.351, -131.190
1863.236, 72.529, -128.996
1890.338, 72.781, -128.317
1917.833, 72.761, -126.826
1945.729, 72.984, -125.848
1974.030, 73.175, -125.224
2002.743, 73.481, -123.668
2031.873, 73.843, -123.399
2061.428, 74.172, -123.372
2091.412, 74.570, -122.888
2121.832, 75.032, -121.943
2152.695, 75.436, -124.125
2184.007, 75.868, -123.940
2215.774, 76.304, -125.578
2248.003, 76.712, -127.317
2280.701, 76.781, -128.588
2313.874, 77.143, -132.347
2347.530, 77.156, -133.256
2381.676, 77.316, -134.251
2416.318, 77.800, -136.522
2451.464, 78.004, -138.954
2487.122, 78.106, -140.346
2523.298, 78.283, -144.407
2560.000, 78.365, -146.026
2597.236, 78.372, -149.497
2635.014, 78.429, -151.285
2673.341, 78.498, -153.176
2712.226, 78.326, -156.163
2751.676, 78.320, -158.312
2791.700, 78.175, -161.842
2832.306, 77.613, -164.220
2873.503, 77.563, -161.229
2915.299, 77.715, -163.004
2957.703, 77.613, -165.020
3000.724, 77.537, -166.970
3044.370, 77.373, -168.157
3088.652, 77.171, -169.856
3133.577, 76.977, -171.043
3179.156, 76.765, -172.210
3225.398, 76.615, -173.132
3272.312, 76.378, -173.673
3319.909, 76.151, -174.736
3368.198, 75.819, -175.303
3417.190, 75.506, -175.279
3466.894, 75.148, -174.703
3517.321, 74.902, -173.536
3568.482, 74.587, -172.642
3620.387, 74.238, -170.635
3673.046, 73.969, -167.257
3726.472, 74.063, -162.465
3780.675, 74.375, -159.436
3835.666, 74.774, -157.054
3891.457, 75.218, -155.272
3948.060, 75.750, -153.672
4005.486, 76.317, -152.851
4063.747, 76.997, -152.990
4122.855, 77.710, -154.129
4182.824, 78.392, -156.477
4243.664, 79.013, -159.844
4305.390, 79.523, -164.216
4368.013, 79.890, -169.456
4431.547, 80.074, -175.193
4496.005, 80.095, 179.218
4561.401, 79.960, 173.438
4627.749, 79.604, 168.002
4695.061, 79.042, 163.454
4763.352, 78.372, 160.976
4832.637, 77.810, 159.722
4902.929, 77.402, 159.301
4974.244, 77.065, 159.170
5046.596, 76.884, 158.969
5120.000, 76.745, 158.788
5194.472, 76.796, 157.988
5270.027, 76.953, 155.679
5346.682, 76.909, 151.141
5424.451, 76.474, 146.750
5503.352, 75.962, 144.223
5583.399, 75.440, 141.640
5664.612, 74.856, 140.219
5747.006, 74.467, 138.731
5830.598, 73.976, 136.563
5915.406, 73.399, 134.148
6001.447, 72.533, 133.320
6088.740, 71.893, 133.249
6177.303, 71.269, 132.969
6267.154, 70.646, 132.744
6358.312, 69.794, 132.069
6450.796, 68.803, 133.383
6544.625, 67.953, 136.498
6639.818, 67.254, 140.013
6736.397, 66.647, 144.622
6834.380, 66.384, 149.039
6933.789, 66.197, 151.740
7034.643, 65.758, 154.169
7136.964, 65.274, 157.813
7240.773, 64.911, 162.638
7346.093, 64.770, 167.948
7452.944, 64.821, 173.117
7561.350, 65.016, 177.246
7671.332, 65.227, -179.006
7782.915, 65.491, -175.277
7896.120, 65.871, -172.262
8010.971, 66.340, -169.874
8127.493, 66.818, -167.443
8245.711, 67.578, -165.965
8365.647, 68.409, -166.745
8487.328, 69.114, -169.467
8610.779, 69.679, -173.211
8736.026, 70.350, -178.469
8863.095, 70.304, 174.293
8992.011, 70.266, 167.713
9122.803, 69.897, 159.742
9255.497, 69.108, 152.019
9390.121, 67.863, 147.168
9526.704, 66.753, 143.886
9665.273, 65.450, 140.450
9805.857, 63.781, 138.434
9948.487, 61.811, 139.421
10093.191, 59.680, 144.927
10240.000, 57.890, 157.512
10388.944, 56.744, 172.307
10540.055, 56.795, -168.154
10693.363, 58.202, -155.696
10848.902, 59.534, -148.930
11006.703, 60.828, -143.242
11166.799, 62.612, -140.302
11329.224, 64.230, -143.758
11494.012, 65.282, -149.150
11661.195, 66.183, -154.455
11830.812, 67.101, -162.410
12002.895, 67.299, -172.674
12177.480, 67.611, 178.914
12354.606, 67.809, 165.415
12534.309, 66.869, 148.715
12716.624, 64.809, 136.851
12901.592, 62.818, 132.090
13089.250, 61.345, 127.543
13279.637, 59.796, 120.990
13472.794, 57.715, 113.520
13668.760, 55.148, 108.443
13867.577, 52.145, 103.241
14069.285, 48.915, 103.739
14273.928, 45.839, 102.110
14481.547, 41.127, 88.501
14692.186, 29.958, 32.838
14905.889, 36.467, -84.474
15122.700, 40.563, -104.269
15342.664, 41.357, -113.402
15565.829, 40.218, -109.969
15792.239, 40.269, -94.917
16021.942, 41.399, -82.118
16254.986, 42.665, -76.016
16491.422, 44.131, -67.531
16731.295, 45.860, -76.654
16974.656, 43.711, -91.120
17221.559, 39.153, -68.108
17472.053, 40.825, -32.699
17726.189, 43.768, -13.315
17984.021, 47.996, -5.824
18245.605, 50.918, -13.983
18510.994, 52.904, -20.876
18780.242, 54.380, -31.732
19053.408, 54.874, -43.493
19330.547, 54.867, -50.638
19611.715, 55.242, -56.064
19896.975, 55.868, -63.921
