* Measurement data measured by REW V5.19
* Source: ASIO MOTU M Series, In 1
* Format: 1M Log Swept Sine, 2 sweeps at -3.0 dBFS  With no timing reference
* Dated: 29 Sep, 2020 4:33:56 PM
* REW Settings:
*  C-weighting compensation: Off
*  Target level: 75.0 dB
* Note: ; 
* Measurement: Sep 29 16:33:56
* Smoothing: None
* Frequency Step: 1/48 octave
* Start Frequency: 10.1 Hz
*
* Freq(Hz), SPL(dB), Phase(degrees)
10.145, 41.883, -10.548
10.293, 42.126, -9.447
10.443, 42.379, -8.492
10.595, 42.745, -8.032
10.749, 43.147, -7.960
10.905, 43.542, -8.418
11.064, 43.929, -9.306
11.225, 44.263, -10.493
11.388, 44.548, -11.952
11.554, 44.769, -13.422
11.722, 44.927, -14.898
11.892, 45.032, -16.126
12.065, 45.088, -17.103
12.241, 45.127, -17.660
12.419, 45.154, -17.826
12.599, 45.212, -17.597
12.782, 45.307, -17.088
12.968, 45.464, -16.449
13.157, 45.674, -15.870
13.348, 45.939, -15.503
13.543, 46.225, -15.470
13.740, 46.523, -15.814
13.939, 46.796, -16.487
14.142, 47.038, -17.414
14.348, 47.234, -18.479
14.557, 47.388, -19.510
14.768, 47.504, -20.431
14.983, 47.607, -21.095
15.201, 47.719, -21.528
15.422, 47.862, -21.732
15.646, 48.060, -21.913
15.874, 48.309, -22.230
16.105, 48.604, -22.855
16.339, 48.910, -23.928
16.577, 49.196, -25.392
16.818, 49.437, -27.171
17.063, 49.608, -29.031
17.311, 49.714, -30.686
17.563, 49.773, -31.923
17.818, 49.816, -32.546
18.077, 49.902, -32.499
18.340, 50.080, -32.020
18.607, 50.366, -31.434
18.877, 50.754, -31.103
19.152, 51.202, -31.322
19.431, 51.651, -32.145
19.713, 52.056, -33.430
20.000, 52.391, -34.967
20.291, 52.647, -36.516
20.586, 52.830, -37.846
20.885, 52.958, -38.763
21.189, 53.063, -39.138
21.497, 53.190, -38.956
21.810, 53.383, -38.374
22.127, 53.668, -37.728
22.449, 54.037, -37.429
22.776, 54.444, -37.789
23.107, 54.825, -38.880
23.443, 55.121, -40.508
23.784, 55.301, -42.289
24.130, 55.375, -43.791
24.481, 55.392, -44.698
24.837, 55.419, -44.957
25.198, 55.509, -44.808
25.565, 55.677, -44.623
25.937, 55.897, -44.664
26.314, 56.136, -44.980
26.697, 56.373, -45.492
27.085, 56.606, -46.128
27.479, 56.829, -46.861
27.879, 57.035, -47.640
28.284, 57.222, -48.352
28.696, 57.405, -48.896
29.113, 57.608, -49.290
29.537, 57.845, -49.700
29.966, 58.102, -50.293
30.402, 58.355, -51.097
30.844, 58.591, -52.037
31.293, 58.809, -53.052
31.748, 59.005, -54.119
32.210, 59.172, -55.133
32.678, 59.325, -55.906
33.154, 59.510, -56.404
33.636, 59.761, -56.951
34.125, 60.043, -57.951
34.621, 60.278, -59.364
35.125, 60.430, -60.660
35.636, 60.555, -61.392
36.154, 60.740, -61.706
36.680, 60.995, -62.151
37.214, 61.253, -62.967
37.755, 61.472, -63.881
38.304, 61.674, -64.643
38.861, 61.902, -65.384
39.427, 62.149, -66.424
40.000, 62.366, -67.919
40.582, 62.497, -69.628
41.172, 62.546, -70.957
41.771, 62.621, -71.543
42.379, 62.845, -72.052
42.995, 63.134, -73.593
43.620, 63.284, -75.777
44.255, 63.312, -77.004
44.898, 63.496, -77.092
45.552, 63.897, -78.099
46.214, 64.180, -80.742
46.886, 64.168, -82.900
47.568, 64.156, -83.002
48.260, 64.423, -82.874
48.962, 64.720, -84.416
49.674, 64.786, -86.326
50.397, 64.775, -87.079
51.130, 64.885, -87.484
51.874, 65.028, -88.475
52.628, 65.127, -89.614
53.394, 65.230, -90.704
54.170, 65.333, -91.891
54.958, 65.426, -93.071
55.758, 65.503, -94.148
56.569, 65.603, -94.843
57.391, 65.797, -95.857
58.226, 65.878, -97.762
59.073, 65.781, -98.514
59.932, 65.898, -98.188
60.804, 66.102, -99.452
61.688, 66.068, -100.726
62.586, 66.082, -100.647
63.496, 66.235, -100.899
64.420, 66.356, -101.478
65.357, 66.486, -101.804
66.307, 66.684, -102.317
67.272, 66.848, -103.503
68.250, 66.899, -104.475
69.243, 66.997, -104.820
70.250, 67.191, -105.541
71.272, 67.364, -106.954
72.309, 67.449, -108.347
73.360, 67.555, -109.201
74.427, 67.733, -110.215
75.510, 67.879, -111.500
76.608, 67.994, -112.556
77.723, 68.132, -113.526
78.853, 68.266, -114.785
80.000, 68.368, -116.228
81.164, 68.417, -117.879
82.344, 68.427, -119.100
83.542, 68.512, -120.297
84.757, 68.566, -121.921
85.990, 68.526, -123.114
87.241, 68.578, -123.810
88.510, 68.566, -125.187
89.797, 68.541, -125.736
91.103, 68.542, -126.939
92.428, 68.506, -127.444
93.773, 68.574, -128.467
95.137, 68.563, -129.175
96.520, 68.605, -129.734
97.924, 68.691, -130.115
99.349, 68.727, -130.813
100.794, 68.816, -131.753
102.260, 68.765, -132.363
103.747, 68.827, -133.252
105.256, 68.840, -133.767
106.787, 68.934, -134.486
108.340, 68.962, -135.733
109.916, 69.021, -136.226
111.515, 69.037, -137.490
113.137, 69.100, -138.074
114.783, 69.115, -138.876
116.452, 69.229, -139.637
118.146, 69.222, -140.480
119.865, 69.271, -141.555
121.608, 69.202, -142.794
123.377, 69.265, -143.686
125.171, 69.216, -144.607
126.992, 69.193, -145.588
128.839, 69.161, -146.302
130.713, 69.049, -146.607
132.615, 68.954, -147.425
134.543, 69.009, -147.811
136.500, 68.998, -148.211
138.486, 69.032, -149.130
140.500, 68.997, -149.111
142.544, 68.971, -150.154
144.617, 68.969, -150.724
146.721, 68.978, -151.242
148.855, 68.964, -151.907
151.020, 68.934, -152.479
153.217, 68.903, -153.304
155.445, 68.868, -153.706
157.706, 68.811, -154.345
160.000, 68.801, -154.973
162.327, 68.728, -155.330
164.688, 68.736, -155.662
167.084, 68.663, -156.407
169.514, 68.653, -156.408
171.980, 68.564, -156.908
174.481, 68.526, -157.128
177.019, 68.509, -157.404
179.594, 68.476, -157.633
182.206, 68.457, -158.361
184.856, 68.372, -158.290
187.545, 68.413, -158.846
190.273, 68.346, -159.024
193.041, 68.182, -159.525
195.849, 68.061, -159.210
198.697, 68.030, -158.805
201.587, 67.992, -158.545
204.520, 67.967, -158.038
207.494, 68.015, -157.815
210.512, 68.043, -157.487
213.574, 68.104, -157.576
216.681, 68.150, -157.561
219.833, 68.210, -157.489
223.030, 68.240, -157.629
226.274, 68.284, -157.714
229.565, 68.301, -157.987
232.905, 68.326, -158.403
236.292, 68.350, -158.648
239.729, 68.351, -158.929
243.216, 68.319, -159.277
246.754, 68.361, -159.396
250.343, 68.343, -159.580
253.984, 68.354, -159.775
257.678, 68.352, -159.922
261.426, 68.365, -159.978
265.229, 68.370, -160.150
269.087, 68.388, -160.320
273.001, 68.353, -160.656
276.972, 68.361, -161.202
281.000, 68.332, -161.946
285.088, 68.276, -161.444
289.234, 68.306, -161.261
293.441, 68.311, -161.254
297.710, 68.306, -161.209
302.040, 68.270, -161.201
306.433, 68.326, -161.641
310.890, 68.297, -161.434
315.412, 68.296, -161.921
320.000, 68.216, -161.883
324.655, 68.169, -161.755
329.377, 68.119, -161.511
334.168, 68.099, -160.964
339.028, 68.172, -160.607
343.959, 68.227, -159.985
348.962, 68.292, -159.850
354.038, 68.348, -159.679
359.188, 68.417, -159.861
364.412, 68.452, -160.024
369.713, 68.516, -160.091
375.090, 68.546, -160.005
380.546, 68.588, -160.206
386.081, 68.624, -160.228
391.697, 68.695, -160.147
397.395, 68.738, -160.433
403.175, 68.770, -160.583
409.039, 68.821, -160.661
414.989, 68.858, -161.093
421.025, 68.915, -161.304
427.149, 68.939, -161.614
433.362, 68.978, -161.621
439.665, 68.966, -162.048
446.060, 68.978, -162.311
452.548, 69.058, -162.524
459.131, 69.010, -162.657
465.809, 69.069, -162.786
472.584, 69.086, -163.041
479.458, 69.096, -163.354
486.432, 69.188, -163.504
493.507, 69.158, -163.432
500.686, 69.199, -164.051
507.968, 69.190, -164.236
515.357, 69.233, -164.385
522.853, 69.224, -164.541
530.458, 69.256, -165.068
538.174, 69.243, -165.332
546.002, 69.320, -165.421
553.943, 69.298, -165.957
562.001, 69.277, -166.317
570.175, 69.263, -166.895
578.469, 69.294, -167.036
586.883, 69.260, -168.018
595.419, 69.293, -167.896
604.080, 69.224, -168.811
612.866, 69.151, -169.536
621.780, 69.010, -170.000
630.824, 68.854, -170.025
640.000, 68.723, -170.055
649.309, 68.569, -169.897
658.753, 68.439, -168.951
668.335, 68.421, -168.161
678.056, 68.432, -167.372
687.919, 68.438, -166.770
697.925, 68.446, -166.123
708.076, 68.475, -165.826
718.376, 68.515, -165.882
728.825, 68.509, -165.595
739.426, 68.582, -165.270
750.181, 68.643, -165.247
761.093, 68.660, -165.135
772.163, 68.686, -165.061
783.394, 68.701, -165.030
794.789, 68.729, -164.977
806.349, 68.756, -164.847
818.078, 68.756, -164.815
829.977, 68.776, -164.886
842.050, 68.795, -164.927
854.297, 68.809, -164.963
866.724, 68.810, -165.007
879.330, 68.801, -164.929
892.120, 68.801, -164.940
905.097, 68.803, -164.844
918.262, 68.784, -164.902
931.618, 68.793, -164.824
945.169, 68.797, -164.826
958.917, 68.785, -164.862
972.864, 68.761, -164.840
987.015, 68.737, -164.733
1001.371, 68.712, -164.659
1015.937, 68.699, -164.712
1030.714, 68.653, -164.509
1045.706, 68.616, -164.340
1060.916, 68.568, -164.136
1076.347, 68.493, -163.756
1092.003, 68.447, -163.149
1107.887, 68.411, -162.370
1124.001, 68.410, -161.510
1140.350, 68.459, -160.626
1156.937, 68.532, -159.983
1173.765, 68.606, -159.530
1190.838, 68.679, -159.179
1208.159, 68.724, -158.880
1225.732, 68.775, -158.405
1243.561, 68.845, -158.037
1261.649, 68.931, -157.680
1280.000, 69.023, -157.440
1298.618, 69.119, -157.358
1317.507, 69.199, -157.375
1336.670, 69.271, -157.433
1356.113, 69.338, -157.510
1375.838, 69.391, -157.620
1395.850, 69.449, -157.691
1416.153, 69.508, -157.764
1436.751, 69.599, -157.868
1457.649, 69.715, -158.411
1478.851, 69.792, -159.938
1500.362, 69.583, -161.626
1522.185, 69.282, -161.452
1544.326, 69.121, -160.432
1566.789, 69.044, -159.423
1589.578, 69.023, -158.551
1612.699, 69.006, -157.697
1636.156, 69.021, -156.845
1659.955, 69.049, -156.123
1684.099, 69.071, -155.363
1708.595, 69.120, -154.818
1733.447, 69.169, -154.105
1758.661, 69.218, -153.517
1784.241, 69.266, -152.909
1810.193, 69.326, -152.404
1836.523, 69.378, -151.784
1863.236, 69.419, -151.216
1890.338, 69.475, -150.482
1917.833, 69.553, -149.780
1945.729, 69.644, -149.042
1974.030, 69.742, -148.468
2002.743, 69.852, -147.781
2031.873, 69.964, -147.184
2061.428, 70.081, -146.638
2091.412, 70.216, -146.077
2121.832, 70.345, -145.608
2152.695, 70.481, -145.081
2184.007, 70.627, -144.576
2215.774, 70.790, -144.114
2248.003, 70.971, -143.671
2280.701, 71.175, -143.353
2313.874, 71.399, -143.141
2347.530, 71.643, -143.152
2381.676, 71.896, -143.499
2416.318, 72.141, -144.264
2451.464, 72.354, -145.493
2487.122, 72.487, -147.245
2523.298, 72.456, -149.097
2560.000, 72.253, -150.428
2597.236, 71.931, -150.340
2635.014, 71.692, -148.426
2673.341, 71.651, -145.623
2712.226, 71.854, -142.515
2751.676, 72.266, -140.131
2791.700, 72.783, -138.879
2832.306, 73.319, -138.608
2873.503, 73.832, -139.098
2915.299, 74.310, -140.194
2957.703, 74.740, -141.778
3000.724, 75.113, -143.761
3044.370, 75.411, -146.060
3088.652, 75.608, -148.415
3133.577, 75.723, -150.312
3179.156, 75.876, -151.534
3225.398, 76.143, -152.863
3272.312, 76.443, -154.965
3319.909, 76.688, -157.664
3368.198, 76.860, -160.666
3417.190, 76.967, -163.797
3466.894, 77.010, -167.028
3517.321, 76.980, -170.241
3568.482, 76.889, -173.308
3620.387, 76.744, -176.160
3673.046, 76.553, -178.779
3726.472, 76.326, 178.933
3780.675, 76.079, 177.038
3835.666, 75.849, 175.500
3891.457, 75.635, 174.060
3948.060, 75.421, 172.773
4005.486, 75.214, 171.689
4063.747, 75.036, 170.772
4122.855, 74.893, 169.896
4182.824, 74.787, 168.939
4243.664, 74.711, 167.755
4305.390, 74.647, 166.213
4368.013, 74.566, 164.259
4431.547, 74.442, 161.895
4496.005, 74.243, 159.203
4561.401, 73.939, 156.392
4627.749, 73.519, 153.715
4695.061, 72.991, 151.545
4763.352, 72.415, 150.203
4832.637, 71.855, 149.403
4902.929, 71.284, 148.933
4974.244, 70.699, 148.941
5046.596, 70.118, 149.546
5120.000, 69.581, 150.784
5194.472, 69.124, 152.410
5270.027, 68.748, 154.207
5346.682, 68.450, 155.880
5424.451, 68.182, 157.377
5503.352, 67.927, 158.711
5583.399, 67.662, 160.011
5664.612, 67.408, 161.501
5747.006, 67.219, 163.123
5830.598, 67.105, 164.139
5915.406, 66.884, 164.255
6001.447, 66.489, 165.135
6088.740, 66.124, 167.087
6177.303, 65.854, 169.653
6267.154, 65.724, 172.393
6358.312, 65.714, 174.602
6450.796, 65.720, 176.092
6544.625, 65.688, 177.197
6639.818, 65.610, 178.236
6736.397, 65.511, 179.414
6834.380, 65.421, -179.146
6933.789, 65.388, -177.585
7034.643, 65.402, -176.306
7136.964, 65.425, -175.191
7240.773, 65.480, -174.197
7346.093, 65.573, -173.549
7452.944, 65.678, -173.445
7561.350, 65.763, -173.918
7671.332, 65.778, -174.915
7782.915, 65.698, -176.164
7896.120, 65.516, -177.320
8010.971, 65.270, -178.165
8127.493, 64.989, -178.717
8245.711, 64.695, -178.941
8365.647, 64.400, -179.178
8487.328, 64.035, -179.348
8610.779, 63.592, -178.617
8736.026, 63.519, -177.286
8863.095, 62.976, -177.082
8992.011, 62.767, -175.143
9122.803, 62.691, -174.390
9255.497, 62.524, -174.737
9390.121, 62.196, -175.230
9526.704, 61.726, -175.215
9665.273, 61.172, -174.133
9805.857, 60.632, -171.538
9948.487, 60.303, -167.251
10093.191, 60.419, -162.720
10240.000, 60.911, -160.548
10388.944, 61.413, -161.793
10540.055, 61.601, -165.423
10693.363, 61.409, -169.601
10848.902, 60.928, -173.303
11006.703, 60.256, -176.248
11166.799, 59.432, -178.070
11329.224, 58.405, -179.735
11494.012, 57.105, -176.123
11661.195, 56.773, -171.601
11830.812, 56.446, -170.172
12002.895, 55.970, -169.013
12177.480, 55.429, -166.620
12354.606, 55.261, -162.782
12534.309, 55.669, -161.490
12716.624, 56.112, -165.336
12901.592, 56.091, -173.769
13089.250, 55.236, 176.118
13279.637, 53.712, 167.556
13472.794, 51.862, 160.854
13668.760, 49.603, 155.035
13867.577, 47.239, 153.942
14069.285, 46.295, 148.384
14273.928, 43.035, 125.256
14481.547, 39.626, 102.640
14692.186, 38.521, 54.743
14905.889, 41.144, -9.434
15122.700, 39.692, -68.317
15342.664, 33.297, -116.455
15565.829, 36.632, 110.355
15792.239, 45.221, 49.984
16021.942, 47.537, 16.407
16254.986, 47.961, -2.832
16491.422, 47.649, -18.883
16731.295, 45.277, -30.017
16974.656, 41.491, -17.688
17221.559, 41.993, 16.552
17472.053, 45.657, 31.589
17726.189, 49.234, 30.923
17984.021, 52.146, 19.815
18245.605, 53.517, 0.997
18510.994, 53.312, -16.920
18780.242, 52.222, -31.648
19053.408, 50.619, -43.051
19330.547, 47.982, -54.170
19611.715, 44.372, -57.027
19896.975, 39.518, -48.060
