* Measurement data measured by REW V5.19
* Source: ASIO MOTU M Series, In 1
* Format: 512k Log Swept Sine, 2 sweeps at -10.0 dBFS  With no timing reference
* Dated: 10 Sep, 2020 5:48:21 PM
* REW Settings:
*  C-weighting compensation: Off
*  Target level: 75.0 dB
* Note: ; 
* Measurement: Sep 10 17:48:21
* Smoothing: None
* Frequency Step: 1/48 octave
* Start Frequency: 10.1 Hz
*
* Freq(Hz), SPL(dB), Phase(degrees)
10.145, 61.373, -47.273
10.293, 61.518, -48.854
10.443, 61.663, -50.624
10.595, 61.786, -52.274
10.749, 61.897, -53.937
10.905, 61.993, -55.575
11.064, 62.078, -57.182
11.225, 62.157, -58.713
11.388, 62.230, -60.171
11.554, 62.307, -61.541
11.722, 62.388, -62.827
11.892, 62.483, -64.057
12.065, 62.590, -65.236
12.241, 62.713, -66.420
12.419, 62.851, -67.611
12.599, 63.000, -68.858
12.782, 63.157, -70.154
12.968, 63.317, -71.518
13.157, 63.476, -72.926
13.348, 63.631, -74.376
13.543, 63.779, -75.829
13.740, 63.920, -77.278
13.939, 64.051, -78.689
14.142, 64.175, -80.053
14.348, 64.290, -81.355
14.557, 64.397, -82.578
14.768, 64.496, -83.711
14.983, 64.586, -84.726
15.201, 64.671, -85.600
15.422, 64.754, -86.309
15.646, 64.845, -86.839
15.874, 64.952, -87.224
16.105, 65.083, -87.496
16.339, 65.246, -87.782
16.577, 65.433, -88.182
16.818, 65.636, -88.786
17.063, 65.834, -89.667
17.311, 66.005, -90.786
17.563, 66.133, -92.059
17.818, 66.211, -93.367
18.077, 66.243, -94.531
18.340, 66.251, -95.445
18.607, 66.261, -96.105
18.877, 66.300, -96.594
19.152, 66.386, -97.108
19.431, 66.510, -97.905
19.713, 66.643, -99.119
20.000, 66.753, -100.750
20.291, 66.814, -102.681
20.586, 66.816, -104.717
20.885, 66.766, -106.653
21.189, 66.689, -108.357
21.497, 66.613, -109.820
21.810, 66.557, -111.125
22.127, 66.523, -112.366
22.449, 66.503, -113.567
22.776, 66.496, -114.678
23.107, 66.511, -115.642
23.443, 66.565, -116.491
23.784, 66.664, -117.367
24.130, 66.792, -118.435
24.481, 66.914, -119.734
24.837, 66.996, -121.109
25.198, 67.033, -122.291
25.565, 67.051, -123.073
25.937, 67.094, -123.477
26.314, 67.183, -123.748
26.697, 67.302, -124.156
27.085, 67.415, -124.767
27.479, 67.498, -125.431
27.879, 67.562, -125.995
28.284, 67.636, -126.504
28.696, 67.721, -127.154
29.113, 67.791, -128.058
29.537, 67.815, -129.062
29.966, 67.808, -129.881
30.402, 67.821, -130.435
30.844, 67.898, -131.014
31.293, 68.020, -132.036
31.748, 68.122, -133.601
32.210, 68.155, -135.407
32.678, 68.127, -137.028
33.154, 68.082, -138.284
33.636, 68.056, -139.283
34.125, 68.050, -140.199
34.621, 68.047, -141.060
35.125, 68.041, -141.795
35.636, 68.046, -142.391
36.154, 68.067, -142.955
36.680, 68.096, -143.618
37.214, 68.104, -144.405
37.755, 68.079, -145.155
38.304, 68.043, -145.713
38.861, 68.033, -146.209
39.427, 68.033, -146.928
40.000, 67.992, -147.785
40.582, 67.922, -148.288
41.172, 67.921, -148.468
41.771, 68.002, -149.063
42.379, 68.043, -150.323
42.995, 67.984, -151.469
43.620, 67.917, -152.066
44.255, 67.885, -152.534
44.898, 67.842, -152.829
45.552, 67.866, -152.610
46.214, 68.041, -152.915
46.886, 68.153, -154.635
47.568, 68.012, -156.233
48.260, 67.850, -156.131
48.962, 67.936, -155.815
49.674, 68.069, -157.054
50.397, 68.017, -158.876
51.130, 67.867, -160.090
51.874, 67.742, -160.983
52.628, 67.624, -161.920
53.394, 67.513, -162.869
54.170, 67.394, -164.002
54.958, 67.202, -164.929
55.758, 67.032, -164.899
56.569, 67.013, -164.748
57.391, 66.976, -165.273
58.226, 66.809, -165.430
59.073, 66.605, -164.686
59.932, 66.455, -163.132
60.804, 66.441, -161.924
61.688, 66.306, -161.878
62.586, 66.004, -160.797
63.496, 65.906, -158.994
64.420, 65.946, -158.217
65.357, 65.972, -158.147
66.307, 65.993, -157.678
67.272, 66.184, -157.332
68.250, 66.264, -157.760
69.243, 66.286, -156.907
70.250, 66.422, -155.626
71.272, 66.780, -155.058
72.309, 66.871, -157.307
73.360, 66.704, -156.232
74.427, 67.091, -156.365
75.510, 67.110, -156.774
76.608, 67.586, -156.319
77.723, 67.782, -158.308
78.853, 67.821, -158.895
80.000, 67.659, -158.435
81.164, 67.864, -157.416
82.344, 67.806, -159.407
83.542, 67.481, -159.504
84.757, 67.645, -157.400
85.990, 68.165, -161.020
87.241, 67.824, -163.516
88.510, 67.838, -163.489
89.797, 67.774, -163.065
91.103, 67.917, -162.372
92.428, 68.201, -163.716
93.773, 67.694, -164.948
95.137, 68.136, -161.906
96.520, 68.238, -165.101
97.924, 68.305, -165.343
99.349, 68.337, -166.696
100.794, 68.202, -167.489
102.260, 68.361, -167.716
103.747, 68.210, -167.890
105.256, 68.493, -169.297
106.787, 68.220, -169.514
108.340, 68.268, -169.430
109.916, 68.279, -169.790
111.515, 68.309, -169.660
113.137, 68.349, -170.346
114.783, 68.405, -170.636
116.452, 68.377, -170.472
118.146, 68.354, -171.713
119.865, 68.313, -171.644
121.608, 68.238, -172.520
123.377, 68.324, -173.692
125.171, 68.323, -173.872
126.992, 68.291, -173.065
128.839, 68.106, -173.804
130.713, 68.117, -173.807
132.615, 67.882, -175.415
134.543, 68.140, -175.801
136.500, 67.970, -175.266
138.486, 67.859, -175.028
140.500, 68.038, -175.949
142.544, 67.944, -177.230
144.617, 68.114, -177.352
146.721, 68.021, -176.872
148.855, 67.989, -177.831
151.020, 67.937, -177.671
153.217, 67.885, -178.098
155.445, 67.768, -178.047
157.706, 67.834, -178.251
160.000, 67.813, -179.081
162.327, 67.809, -178.845
164.688, 67.846, -178.788
167.084, 67.836, -179.143
169.514, 67.772, -179.774
171.980, 67.804, -179.714
174.481, 67.674, 179.586
177.019, 67.753, 179.846
179.594, 67.703, -179.811
182.206, 67.409, 179.278
184.856, 67.510, 178.302
187.545, 67.529, 177.904
190.273, 67.468, 178.638
193.041, 67.627, 178.296
195.849, 67.305, 178.337
198.697, 67.182, 178.471
201.587, 67.158, 178.281
204.520, 67.089, -179.300
207.494, 67.415, 179.099
210.512, 67.247, 178.952
213.574, 67.352, 178.824
216.681, 67.305, 178.091
219.833, 67.196, 176.820
223.030, 67.176, 177.280
226.274, 67.047, 177.510
229.565, 67.102, 177.324
232.905, 66.971, 176.492
236.292, 67.069, 176.895
239.729, 66.990, 176.499
243.216, 66.975, 176.823
246.754, 66.886, 176.482
250.343, 66.859, 176.586
253.984, 66.879, 176.354
257.678, 66.774, 176.701
261.426, 66.716, 176.024
265.229, 66.723, 176.532
269.087, 66.665, 176.167
273.001, 66.572, 176.514
276.972, 66.562, 176.510
281.000, 66.529, 176.654
285.088, 66.511, 176.769
289.234, 66.497, 176.883
293.441, 66.355, 177.074
297.710, 66.417, 176.463
302.040, 66.334, 176.566
306.433, 66.422, 176.964
310.890, 66.277, 177.839
315.412, 66.260, 177.034
320.000, 66.104, 177.854
324.655, 66.230, 177.174
329.377, 66.183, 177.451
334.168, 66.152, 177.608
339.028, 66.135, 177.855
343.959, 66.134, 178.212
348.962, 66.078, 177.404
354.038, 66.032, 177.294
359.188, 66.022, 178.471
364.412, 65.909, 178.173
369.713, 66.060, 178.351
375.090, 65.943, 178.786
380.546, 65.941, 178.384
386.081, 65.917, 178.724
391.697, 65.871, 179.010
397.395, 65.848, 179.541
403.175, 65.926, 179.047
409.039, 65.840, 178.907
414.989, 65.824, -179.785
421.025, 65.830, -179.607
427.149, 65.863, -179.687
433.362, 65.848, -179.791
439.665, 65.826, 179.998
446.060, 65.830, -179.871
452.548, 65.845, 179.956
459.131, 65.860, -179.739
465.809, 65.819, -179.602
472.584, 65.835, -179.635
479.458, 65.779, -179.837
486.432, 65.774, -179.905
493.507, 65.726, -179.764
500.686, 65.729, -179.383
507.968, 65.628, -179.755
515.357, 65.635, -179.761
522.853, 65.449, -179.445
530.458, 65.511, -179.649
538.174, 65.388, -179.182
546.002, 65.292, -179.005
553.943, 65.212, -178.420
562.001, 65.115, -177.538
570.175, 65.070, -176.832
578.469, 65.079, -175.730
586.883, 65.049, -174.801
595.419, 65.145, -174.257
604.080, 65.188, -173.592
612.866, 65.278, -172.787
621.780, 65.341, -172.795
630.824, 65.386, -172.538
640.000, 65.385, -172.237
649.309, 65.457, -172.286
658.753, 65.484, -171.690
668.335, 65.517, -171.174
678.056, 65.565, -171.481
687.919, 65.642, -170.950
697.925, 65.673, -170.758
708.076, 65.748, -170.410
718.376, 65.753, -170.367
728.825, 65.740, -170.123
739.426, 65.802, -170.111
750.181, 65.844, -169.982
761.093, 65.884, -169.890
772.163, 65.929, -169.876
783.394, 65.979, -169.930
794.789, 65.995, -169.892
806.349, 65.997, -169.796
818.078, 66.044, -170.159
829.977, 66.044, -170.061
842.050, 66.044, -170.276
854.297, 66.097, -170.404
866.724, 66.048, -170.355
879.330, 66.057, -170.473
892.120, 66.017, -170.414
905.097, 66.043, -170.447
918.262, 65.980, -170.382
931.618, 65.975, -170.205
945.169, 65.966, -170.247
958.917, 65.912, -169.728
972.864, 65.907, -169.479
987.015, 65.924, -169.329
1001.371, 65.946, -169.432
1015.937, 65.933, -169.098
1030.714, 65.876, -169.092
1045.706, 65.848, -168.988
1060.916, 65.778, -168.608
1076.347, 65.759, -168.382
1092.003, 65.733, -167.875
1107.887, 65.671, -167.349
1124.001, 65.624, -167.048
1140.350, 65.602, -166.370
1156.937, 65.537, -165.900
1173.765, 65.529, -165.204
1190.838, 65.526, -164.051
1208.159, 65.533, -163.242
1225.732, 65.571, -162.507
1243.561, 65.555, -161.726
1261.649, 65.605, -160.715
1280.000, 65.667, -159.719
1298.618, 65.745, -158.778
1317.507, 65.824, -157.813
1336.670, 65.920, -156.905
1356.113, 66.038, -156.287
1375.838, 66.162, -155.526
1395.850, 66.308, -154.997
1416.153, 66.419, -154.427
1436.751, 66.568, -153.950
1457.649, 66.709, -153.508
1478.851, 66.858, -153.142
1500.362, 66.987, -152.929
1522.185, 67.127, -152.776
1544.326, 67.237, -152.450
1566.789, 67.358, -152.338
1589.578, 67.482, -152.149
1612.699, 67.631, -151.863
1636.156, 67.752, -151.686
1659.955, 67.898, -151.597
1684.099, 68.049, -151.386
1708.595, 68.219, -151.453
1733.447, 68.369, -151.534
1758.661, 68.513, -151.516
1784.241, 68.677, -151.596
1810.193, 68.827, -151.886
1836.523, 68.966, -152.219
1863.236, 69.094, -152.557
1890.338, 69.212, -152.501
1917.833, 69.454, -152.520
1945.729, 69.630, -153.545
1974.030, 69.744, -154.339
2002.743, 69.834, -154.964
2031.873, 69.977, -155.476
2061.428, 70.033, -156.026
2091.412, 70.090, -156.169
2121.832, 70.271, -156.580
2152.695, 70.391, -156.964
2184.007, 70.488, -157.453
2215.774, 70.724, -158.115
2248.003, 70.931, -159.284
2280.701, 71.138, -160.385
2313.874, 71.169, -161.953
2347.530, 71.317, -163.318
2381.676, 71.409, -164.479
2416.318, 71.461, -167.218
2451.464, 71.486, -169.152
2487.122, 71.429, -170.804
2523.298, 71.348, -172.844
2560.000, 71.281, -174.318
2597.236, 71.020, -176.360
2635.014, 70.591, -178.374
2673.341, 70.259, -179.519
2712.226, 69.655, -179.792
2751.676, 69.090, -179.852
2791.700, 68.520, -175.769
2832.306, 68.074, -171.641
2873.503, 67.898, -165.750
2915.299, 67.752, -159.450
2957.703, 68.057, -152.896
3000.724, 69.245, -143.603
3044.370, 70.876, -138.608
3088.652, 72.953, -137.958
3133.577, 74.915, -143.793
3179.156, 76.496, -153.630
3225.398, 77.158, -165.496
3272.312, 77.256, -177.978
3319.909, 76.975, 171.931
3368.198, 76.410, 164.603
3417.190, 75.826, 159.283
3466.894, 75.166, 152.576
3517.321, 74.630, 147.143
3568.482, 74.050, 141.955
3620.387, 73.059, 136.700
3673.046, 71.837, 131.172
3726.472, 70.367, 128.478
3780.675, 68.805, 130.338
3835.666, 67.040, 133.357
3891.457, 66.193, 139.628
3948.060, 66.153, 145.849
4005.486, 65.655, 154.643
4063.747, 65.435, 155.636
4122.855, 65.247, 156.469
4182.824, 65.284, 164.850
4243.664, 64.701, 165.842
4305.390, 65.082, 165.724
4368.013, 64.711, 171.813
4431.547, 65.941, -178.749
4496.005, 65.059, 171.877
4561.401, 66.750, -179.567
4627.749, 64.921, 164.780
4695.061, 54.412, -164.704
4763.352, 58.607, -152.445
4832.637, 68.073, -153.255
4902.929, 68.243, 171.815
4974.244, 68.335, 178.810
5046.596, 68.927, 169.526
5120.000, 69.105, 175.621
5194.472, 68.964, 166.010
5270.027, 68.846, 159.765
5346.682, 68.425, 153.055
5424.451, 67.297, 151.224
5503.352, 66.178, 152.538
5583.399, 64.738, 153.942
5664.612, 63.741, 160.429
5747.006, 62.820, 164.259
5830.598, 62.389, 172.788
5915.406, 62.286, -178.757
6001.447, 62.825, -170.433
6088.740, 63.691, -164.281
6177.303, 64.681, -160.387
6267.154, 65.762, -158.707
6358.312, 66.810, -159.061
6450.796, 67.795, -161.305
6544.625, 68.638, -165.989
6639.818, 69.131, -172.252
6736.397, 69.238, -178.698
6834.380, 68.996, 175.387
6933.789, 68.473, 170.722
7034.643, 67.782, 168.160
7136.964, 67.091, 167.966
7240.773, 66.615, 169.217
7346.093, 66.342, 171.285
7452.944, 66.283, 173.309
7561.350, 66.386, 174.945
7671.332, 66.616, 176.067
7782.915, 67.023, 176.720
7896.120, 67.619, 174.727
8010.971, 67.920, 170.642
8127.493, 68.014, 166.488
8245.711, 68.060, 162.496
8365.647, 68.073, 157.782
8487.328, 68.036, 152.122
8610.779, 67.920, 145.680
8736.026, 68.231, 135.132
8863.095, 67.138, 117.523
8992.011, 64.771, 97.503
9122.803, 60.220, 74.399
9255.497, 51.881, 27.887
9390.121, 54.584, -82.888
9526.704, 61.184, -116.108
9665.273, 64.739, -138.099
9805.857, 66.242, -159.513
9948.487, 66.058, -175.879
10093.191, 65.320, 175.061
10240.000, 64.501, 171.545
10388.944, 64.461, 173.175
10540.055, 65.585, 169.703
10693.363, 66.940, 154.201
10848.902, 65.371, 122.000
11006.703, 53.692, 123.367
11166.799, 60.167, 177.520
11329.224, 60.998, 168.362
11494.012, 61.014, 150.073
11661.195, 59.591, 152.566
11830.812, 59.645, 152.522
12002.895, 59.057, 154.595
12177.480, 59.176, 160.536
12354.606, 61.582, 158.791
12534.309, 62.599, 140.251
12716.624, 62.378, 119.209
12901.592, 60.722, 108.203
13089.250, 58.649, 82.215
13279.637, 54.541, 47.425
13472.794, 46.183, -95.975
13668.760, 50.831, 130.854
13867.577, 54.873, 119.394
14069.285, 55.227, 72.770
14273.928, 54.056, 43.882
14481.547, 50.532, -15.402
14692.186, 48.095, 64.518
14905.889, 57.143, 3.181
15122.700, 56.778, -32.438
15342.664, 60.778, -58.685
15565.829, 61.984, -85.928
15792.239, 59.248, -123.504
16021.942, 54.841, -160.747
16254.986, 42.885, -63.083
16491.422, 48.812, -85.936
16731.295, 57.481, -69.245
16974.656, 57.965, -114.019
17221.559, 55.896, -142.483
17472.053, 50.607, -153.393
17726.189, 47.489, -154.254
17984.021, 37.922, -26.227
18245.605, 46.071, -73.030
18510.994, 47.812, -69.827
18780.242, 50.099, -66.865
19053.408, 56.001, -74.561
19330.547, 54.883, -108.765
19611.715, 54.414, -123.002
19896.975, 47.624, -150.690
