* Measurement data measured by REW V5.19
* Source: ASIO MOTU M Series, In 1
* Format: 1M Log Swept Sine, 1 sweep at -10.0 dBFS  With no timing reference
* Dated: 30 Apr, 2021 8:15:00 PM
* REW Settings:
*  C-weighting compensation: Off
*  Target level: 75.0 dB
* Note: ; 
* Measurement: Apr 30 20:15:00
* Smoothing: 1/48 octave
* Frequency Step: 1/48 octave
* Start Frequency: 10.1 Hz
*
* Freq(Hz), SPL(dB), Phase(degrees)
10.145, 42.127, 148.635
10.293, 42.261, 147.616
10.443, 42.399, 146.273
10.595, 42.584, 144.530
10.749, 42.760, 142.780
10.905, 42.861, 141.593
11.064, 42.928, 140.688
11.225, 43.014, 139.790
11.388, 43.108, 138.986
11.554, 43.208, 138.382
11.722, 43.317, 137.951
11.892, 43.443, 137.600
12.065, 43.587, 137.322
12.241, 43.748, 136.999
12.419, 43.924, 136.652
12.599, 44.100, 136.285
12.782, 44.278, 135.893
12.968, 44.451, 135.453
13.157, 44.619, 135.024
13.348, 44.777, 134.642
13.543, 44.931, 134.329
13.740, 45.082, 134.096
13.939, 45.236, 133.958
14.142, 45.396, 133.905
14.348, 45.566, 133.925
14.557, 45.750, 133.978
14.768, 45.947, 134.047
14.983, 46.157, 134.097
15.201, 46.377, 134.108
15.422, 46.607, 134.059
15.646, 46.842, 133.933
15.874, 47.080, 133.720
16.105, 47.317, 133.410
16.339, 47.548, 133.005
16.577, 47.768, 132.521
16.818, 47.975, 131.977
17.063, 48.165, 131.415
17.311, 48.341, 130.881
17.563, 48.506, 130.406
17.818, 48.668, 130.012
18.077, 48.835, 129.696
18.340, 49.013, 129.416
18.607, 49.205, 129.122
18.877, 49.408, 128.766
19.152, 49.617, 128.310
19.431, 49.822, 127.755
19.713, 50.019, 127.134
20.000, 50.206, 126.489
20.291, 50.384, 125.858
20.586, 50.560, 125.259
20.885, 50.735, 124.687
21.189, 50.913, 124.126
21.497, 51.092, 123.561
21.810, 51.268, 123.002
22.127, 51.442, 122.472
22.449, 51.617, 121.989
22.776, 51.798, 121.547
23.107, 51.988, 121.111
23.443, 52.184, 120.632
23.784, 52.379, 120.084
24.130, 52.563, 119.491
24.481, 52.730, 118.923
24.837, 52.886, 118.465
25.198, 53.044, 118.163
25.565, 53.223, 117.979
25.937, 53.433, 117.798
26.314, 53.670, 117.474
26.697, 53.917, 116.900
27.085, 54.149, 116.071
27.479, 54.346, 115.090
27.879, 54.503, 114.127
28.284, 54.636, 113.334
28.696, 54.769, 112.752
29.113, 54.927, 112.287
29.537, 55.112, 111.756
29.966, 55.304, 111.045
30.402, 55.476, 110.196
30.844, 55.621, 109.380
31.293, 55.756, 108.734
31.748, 55.908, 108.228
32.210, 56.083, 107.699
32.678, 56.262, 107.037
33.154, 56.423, 106.302
33.636, 56.569, 105.643
34.125, 56.719, 105.100
34.621, 56.884, 104.560
35.125, 57.051, 103.920
35.636, 57.201, 103.243
36.154, 57.342, 102.664
36.680, 57.495, 102.167
37.214, 57.662, 101.610
37.755, 57.823, 100.963
38.304, 57.971, 100.376
38.861, 58.137, 99.942
39.427, 58.345, 99.445
40.000, 58.570, 98.615
40.582, 58.759, 97.521
41.172, 58.907, 96.502
41.771, 59.053, 95.698
42.379, 59.225, 94.919
42.995, 59.400, 94.016
43.620, 59.564, 93.103
44.255, 59.737, 92.224
44.898, 59.919, 91.238
45.552, 60.086, 90.158
46.214, 60.247, 89.124
46.886, 60.420, 88.005
47.568, 60.565, 86.650
48.260, 60.649, 85.439
48.962, 60.741, 84.715
49.674, 60.913, 84.027
50.397, 61.112, 82.843
51.130, 61.267, 81.338
51.874, 61.386, 79.825
52.628, 61.494, 78.303
53.394, 61.588, 76.688
54.170, 61.653, 74.976
54.958, 61.682, 73.256
55.758, 61.676, 71.550
56.569, 61.619, 69.829
57.391, 61.493, 68.265
58.226, 61.309, 66.962
59.073, 61.050, 65.961
59.932, 60.704, 65.673
60.804, 60.328, 66.605
61.688, 60.038, 68.939
62.586, 59.964, 72.384
63.496, 60.206, 76.061
64.420, 60.727, 78.724
65.357, 61.377, 79.681
66.307, 61.983, 78.772
67.272, 62.409, 76.778
68.250, 62.693, 74.280
69.243, 62.771, 71.546
70.250, 62.797, 69.442
71.272, 62.720, 66.204
72.309, 62.210, 65.114
73.360, 62.128, 67.512
74.427, 62.361, 67.912
75.510, 62.505, 68.640
76.608, 62.818, 69.317
77.723, 63.115, 69.469
78.853, 63.432, 69.333
80.000, 63.720, 68.709
81.164, 63.988, 67.775
82.344, 64.238, 66.513
83.542, 64.464, 65.033
84.757, 64.669, 63.496
85.990, 64.867, 61.897
87.241, 65.038, 60.121
88.510, 65.163, 58.196
89.797, 65.206, 56.110
91.103, 65.142, 54.422
92.428, 65.056, 53.623
93.773, 65.070, 53.577
95.137, 65.222, 53.292
96.520, 65.381, 52.395
97.924, 65.529, 51.299
99.349, 65.662, 49.862
100.794, 65.763, 48.352
102.260, 65.841, 46.812
103.747, 65.906, 45.394
105.256, 65.948, 43.954
106.787, 65.981, 42.751
108.340, 66.015, 41.423
109.916, 66.033, 40.144
111.515, 66.043, 38.870
113.137, 66.049, 37.687
114.783, 66.058, 36.516
116.452, 66.056, 35.347
118.146, 66.039, 34.291
119.865, 66.051, 33.242
121.608, 66.023, 32.017
123.377, 65.993, 31.010
125.171, 65.973, 29.989
126.992, 65.942, 28.961
128.839, 65.902, 28.014
130.713, 65.865, 27.139
132.615, 65.827, 26.238
134.543, 65.785, 25.438
136.500, 65.740, 24.640
138.486, 65.685, 23.895
140.500, 65.637, 23.153
142.544, 65.596, 22.469
144.617, 65.576, 21.875
146.721, 65.540, 21.093
148.855, 65.479, 20.429
151.020, 65.422, 19.745
153.217, 65.375, 19.187
155.445, 65.305, 18.690
157.706, 65.209, 18.219
160.000, 65.104, 17.593
162.327, 65.105, 17.192
164.688, 65.106, 16.772
167.084, 65.091, 16.568
169.514, 65.043, 16.342
171.980, 64.985, 15.675
174.481, 64.953, 15.083
177.019, 64.922, 14.655
179.594, 64.880, 14.096
182.206, 64.802, 13.484
184.856, 64.696, 13.139
187.545, 64.592, 13.320
190.273, 64.577, 13.471
193.041, 64.582, 13.079
195.849, 64.572, 12.677
198.697, 64.521, 12.244
201.587, 64.472, 11.723
204.520, 64.396, 11.100
207.494, 64.269, 10.853
210.512, 64.162, 11.231
213.574, 64.175, 11.583
216.681, 64.205, 11.309
219.833, 64.193, 10.939
223.030, 64.154, 10.593
226.274, 64.080, 10.288
229.565, 64.039, 9.897
232.905, 64.005, 9.313
236.292, 63.781, 8.891
239.729, 63.522, 10.338
243.216, 63.671, 12.061
246.754, 63.775, 12.023
250.343, 63.781, 11.788
253.984, 63.753, 11.419
257.678, 63.730, 11.203
261.426, 63.729, 11.211
265.229, 63.720, 11.097
269.087, 63.685, 11.056
273.001, 63.664, 11.139
276.972, 63.656, 11.094
281.000, 63.630, 11.012
285.088, 63.596, 11.019
289.234, 63.577, 11.166
293.441, 63.560, 11.155
297.710, 63.512, 11.121
302.040, 63.505, 11.232
306.433, 63.537, 11.423
310.890, 63.474, 11.780
315.412, 63.438, 11.847
320.000, 63.409, 12.073
324.655, 63.414, 12.121
329.377, 63.389, 12.435
334.168, 63.331, 12.717
339.028, 63.271, 13.494
343.959, 63.297, 14.574
348.962, 63.378, 15.287
354.038, 63.484, 15.961
359.188, 63.621, 16.631
364.412, 63.838, 17.250
369.713, 64.106, 17.259
375.090, 64.402, 16.332
380.546, 64.604, 14.417
386.081, 64.599, 12.108
391.697, 64.448, 10.534
397.395, 64.253, 9.783
403.175, 64.080, 9.586
409.039, 63.943, 9.718
414.989, 63.833, 10.062
421.025, 63.753, 10.422
427.149, 63.694, 10.885
433.362, 63.665, 11.373
439.665, 63.630, 11.913
446.060, 63.628, 12.426
452.548, 63.618, 12.847
459.131, 63.644, 13.453
465.809, 63.686, 13.946
472.584, 63.736, 14.327
479.458, 63.790, 14.756
486.432, 63.841, 15.092
493.507, 63.910, 15.383
500.686, 64.003, 15.770
507.968, 64.102, 15.958
515.357, 64.209, 16.118
522.853, 64.329, 16.144
530.458, 64.425, 16.044
538.174, 64.541, 15.877
546.002, 64.662, 15.442
553.943, 64.758, 14.749
562.001, 64.784, 13.994
570.175, 64.740, 13.466
578.469, 64.675, 13.838
586.883, 64.771, 14.768
595.419, 65.001, 14.957
604.080, 65.232, 14.348
612.866, 65.421, 13.203
621.780, 65.561, 11.651
630.824, 65.619, 9.963
640.000, 65.616, 8.192
649.309, 65.549, 6.471
658.753, 65.417, 4.963
668.335, 65.240, 3.678
678.056, 65.031, 2.789
687.919, 64.815, 2.208
697.925, 64.590, 2.066
708.076, 64.376, 2.122
718.376, 64.165, 2.531
728.825, 64.002, 3.190
739.426, 63.863, 3.998
750.181, 63.762, 5.074
761.093, 63.721, 6.251
772.163, 63.724, 7.279
783.394, 63.772, 8.181
794.789, 63.868, 8.955
806.349, 63.991, 9.353
818.078, 64.113, 9.353
829.977, 64.216, 9.161
842.050, 64.329, 8.624
854.297, 64.392, 7.659
866.724, 64.361, 6.575
879.330, 64.258, 5.650
892.120, 64.100, 5.111
905.097, 63.915, 4.997
918.262, 63.754, 5.436
931.618, 63.631, 6.317
945.169, 63.589, 7.048
958.917, 63.570, 7.940
972.864, 63.627, 8.714
987.015, 63.705, 9.054
1001.371, 63.790, 9.068
1015.937, 63.853, 8.650
1030.714, 63.842, 8.137
1045.706, 63.810, 7.926
1060.916, 63.798, 7.467
1076.347, 63.736, 6.860
1092.003, 63.642, 6.279
1107.887, 63.490, 6.062
1124.001, 63.339, 5.929
1140.350, 63.172, 6.059
1156.937, 62.990, 6.394
1173.765, 62.817, 6.971
1190.838, 62.656, 7.727
1208.159, 62.563, 9.120
1225.732, 62.565, 9.528
1243.561, 62.446, 9.987
1261.649, 62.341, 10.202
1280.000, 62.141, 10.487
1298.618, 61.817, 11.674
1317.507, 61.648, 13.760
1336.670, 61.487, 15.544
1356.113, 61.334, 18.152
1375.838, 61.318, 20.856
1395.850, 61.351, 23.484
1416.153, 61.468, 26.203
1436.751, 61.660, 28.325
1457.649, 61.855, 30.125
1478.851, 62.015, 32.142
1500.362, 62.307, 33.616
1522.185, 62.522, 34.787
1544.326, 62.750, 35.925
1566.789, 63.019, 36.615
1589.578, 63.161, 37.054
1612.699, 63.286, 38.036
1636.156, 63.462, 39.131
1659.955, 63.626, 40.268
1684.099, 63.816, 41.271
1708.595, 63.996, 42.590
1733.447, 64.224, 43.968
1758.661, 64.508, 45.512
1784.241, 64.856, 46.792
1810.193, 65.213, 47.588
1836.523, 65.603, 48.562
1863.236, 66.040, 48.975
1890.338, 66.469, 48.954
1917.833, 66.861, 48.726
1945.729, 67.257, 48.072
1974.030, 67.580, 47.706
2002.743, 67.980, 47.294
2031.873, 68.408, 46.340
2061.428, 68.762, 44.717
2091.412, 69.050, 43.153
2121.832, 69.212, 41.719
2152.695, 69.446, 41.072
2184.007, 69.699, 40.256
2215.774, 70.025, 39.569
2248.003, 70.337, 38.389
2280.701, 70.690, 37.329
2313.874, 71.129, 35.774
2347.530, 71.533, 33.064
2381.676, 71.790, 30.082
2416.318, 72.022, 27.317
2451.464, 72.203, 24.053
2487.122, 72.306, 21.010
2523.298, 72.333, 17.973
2560.000, 72.337, 15.364
2597.236, 72.327, 12.975
2635.014, 72.360, 10.727
2673.341, 72.375, 8.270
2712.226, 72.351, 5.903
2751.676, 72.401, 3.785
2791.700, 72.467, 0.829
2832.306, 72.434, -2.619
2873.503, 72.277, -5.871
2915.299, 72.078, -8.688
2957.703, 71.892, -11.166
3000.724, 71.738, -13.617
3044.370, 71.563, -16.649
3088.652, 71.296, -19.661
3133.577, 70.966, -22.306
3179.156, 70.653, -24.739
3225.398, 70.347, -27.350
3272.312, 69.957, -30.296
3319.909, 69.503, -32.816
3368.198, 69.064, -35.417
3417.190, 68.556, -38.484
3466.894, 67.900, -41.731
3517.321, 67.095, -44.689
3568.482, 66.128, -47.161
3620.387, 65.029, -49.053
3673.046, 63.714, -50.434
3726.472, 62.073, -50.347
3780.675, 60.058, -46.853
3835.666, 57.857, -37.025
3891.457, 56.227, -20.075
3948.060, 55.916, -0.278
4005.486, 56.772, 17.455
4063.747, 58.362, 31.529
4122.855, 60.503, 41.313
4182.824, 62.969, 45.189
4243.664, 65.213, 41.541
4305.390, 66.565, 32.133
4368.013, 66.844, 23.168
4431.547, 66.854, 18.599
4496.005, 66.999, 14.272
4561.401, 66.895, 9.350
4627.749, 66.485, 5.628
4695.061, 65.958, 3.901
4763.352, 65.450, 3.702
4832.637, 64.987, 5.009
4902.929, 64.720, 7.521
4974.244, 64.648, 10.251
5046.596, 64.747, 12.989
5120.000, 65.009, 15.289
5194.472, 65.401, 16.965
5270.027, 65.922, 17.604
5346.682, 66.494, 16.608
5424.451, 66.966, 13.775
5503.352, 67.219, 9.668
5583.399, 67.189, 4.913
5664.612, 66.837, 0.323
5747.006, 66.153, -3.008
5830.598, 65.285, -3.848
5915.406, 64.444, -2.405
6001.447, 63.725, 0.888
6088.740, 63.187, 5.586
6177.303, 62.910, 11.353
6267.154, 62.894, 17.337
6358.312, 63.116, 23.501
6450.796, 63.645, 29.390
6544.625, 64.444, 34.087
6639.818, 65.400, 37.132
6736.397, 66.418, 38.627
6834.380, 67.475, 38.831
6933.789, 68.579, 37.708
7034.643, 69.726, 34.997
7136.964, 70.885, 30.110
7240.773, 71.872, 22.318
7346.093, 72.437, 12.327
7452.944, 72.522, 1.928
7561.350, 72.232, -7.713
7671.332, 71.678, -16.316
7782.915, 70.937, -24.072
7896.120, 69.974, -31.660
8010.971, 68.506, -38.779
8127.493, 66.221, -40.705
8245.711, 63.875, -30.559
8365.647, 63.565, -14.227
8487.328, 65.066, -4.675
8610.779, 66.808, -4.868
8736.026, 68.179, -12.137
8863.095, 68.928, -26.002
8992.011, 68.200, -42.781
9122.803, 66.354, -55.235
9255.497, 63.805, -62.343
9390.121, 60.691, -62.156
9526.704, 57.560, -51.130
9665.273, 55.828, -34.601
9805.857, 54.823, -20.284
9948.487, 54.214, 2.357
10093.191, 56.587, 24.254
10240.000, 59.473, 30.622
10388.944, 61.790, 28.199
10540.055, 63.494, 19.387
10693.363, 63.869, 5.903
10848.902, 62.711, -2.043
11006.703, 61.484, 1.795
11166.799, 61.608, 9.838
11329.224, 62.950, 15.437
11494.012, 64.754, 12.967
11661.195, 65.807, 4.586
11830.812, 66.511, -2.845
12002.895, 67.524, -11.857
12177.480, 68.339, -26.766
12354.606, 68.375, -45.451
12534.309, 67.727, -65.375
12716.624, 66.399, -86.935
12901.592, 64.124, -109.493
13089.250, 60.647, -128.970
13279.637, 56.478, -143.668
13472.794, 51.679, -155.159
13668.760, 46.461, -161.254
13867.577, 40.964, -157.930
14069.285, 42.764, -123.918
14273.928, 48.575, -148.190
14481.547, 51.331, 173.187
14692.186, 53.775, 149.386
14905.889, 55.935, 126.823
15122.700, 56.846, 107.098
15342.664, 57.452, 92.698
15565.829, 57.637, 78.728
15792.239, 57.077, 67.685
16021.942, 56.110, 62.718
16254.986, 55.502, 64.240
16491.422, 56.081, 68.213
16731.295, 57.882, 65.788
16974.656, 59.223, 51.436
17221.559, 59.285, 27.968
17472.053, 56.457, 5.870
17726.189, 51.668, 12.094
17984.021, 49.724, 24.930
18245.605, 48.471, 34.733
18510.994, 48.206, 48.204
18780.242, 49.394, 54.989
19053.408, 49.975, 48.685
19330.547, 48.538, 44.350
19611.715, 46.997, 52.969
19896.975, 47.024, 62.820
