* Measurement data measured by REW V5.20.5
* Source: C:\Users\ricar\Downloads\Nymz v3 - Cópia.txt
* Format: Comma/Tab/Space delimited data
* Dated: 26/mar/2022 16:53:07
* REW Settings:
*  C-weighting compensation: Off
*  Target level: 75.0 dB
* Note: Measurement imported from C:\Users\ricar\Downloads\Nymz v3 - Cópia.txt Format: Comma/Tab/Space delimited data 27 values loaded, 20 Hz to 20.040 Hz log spaced
* Measurement: Nymz v3 - Cópia
* Smoothing: 1/12 octave
* Frequency Step: 1/48 octave
* Start Frequency: 20.000 Hz
*
* Freq(Hz)	SPL(dB)
20.000000	67.988
20.299999	67.978
20.600000	67.964
20.900000	67.948
21.200001	67.932
21.400000	67.921
21.799999	67.899
22.000000	67.889
22.400000	67.868
22.700001	67.852
23.000000	67.836
23.299999	67.821
23.600000	67.806
24.000000	67.785
24.299999	67.770
24.700001	67.750
25.000000	67.736
25.400000	67.716
25.799999	67.697
26.200001	67.677
26.500000	67.663
26.900000	67.644
27.200001	67.630
27.600000	67.611
28.000000	67.592
28.500000	67.569
29.000000	67.546
29.500000	67.523
30.000000	67.500
30.400000	67.482
30.700001	67.468
31.100000	67.450
31.500000	67.432
32.000000	67.409
32.500000	67.385
33.000000	67.362
33.500000	67.338
34.000000	67.313
34.500000	67.289
35.000000	67.264
35.500000	67.239
36.000000	67.214
36.500000	67.188
37.000000	67.162
37.500000	67.136
38.200001	67.098
38.700001	67.071
39.500000	67.026
40.000000	66.998
40.599998	66.961
41.200001	66.924
41.799999	66.885
42.500000	66.839
43.099998	66.799
43.700001	66.758
44.400002	66.709
45.000000	66.667
45.500000	66.632
46.200001	66.581
46.799999	66.538
47.500000	66.486
48.200001	66.434
48.700001	66.397
49.400002	66.345
50.000000	66.300
50.799999	66.240
51.500000	66.187
52.200001	66.133
53.000000	66.071
53.799999	66.009
54.500000	65.953
55.200001	65.897
56.000000	65.832
57.000000	65.750
58.000000	65.668
59.000000	65.584
60.000000	65.500
60.799999	65.432
61.500000	65.372
62.200001	65.313
63.000000	65.246
64.000000	65.162
65.000000	65.079
66.000000	64.996
67.000000	64.914
68.000000	64.832
69.000000	64.751
70.000000	64.671
71.000000	64.591
72.000000	64.512
73.000000	64.434
74.000000	64.356
75.000000	64.279
76.199997	64.187
77.500000	64.088
78.800003	63.989
80.000000	63.896
81.199997	63.802
82.500000	63.698
83.800003	63.595
85.000000	63.501
86.199997	63.409
87.500000	63.311
88.500000	63.237
90.000000	63.129
91.199997	63.045
92.500000	62.956
93.800003	62.870
95.000000	62.794
96.199997	62.721
97.500000	62.644
98.800003	62.572
100.000000	62.510
101.500000	62.438
103.000000	62.371
104.400002	62.311
106.000000	62.246
107.500000	62.186
109.000000	62.128
110.599998	62.068
112.000000	62.017
113.800003	61.953
115.000000	61.911
117.199997	61.837
118.000000	61.811
120.599998	61.729
122.000000	61.686
124.099998	61.623
125.000000	61.597
126.500000	61.554
128.000000	61.513
131.500000	61.419
132.000000	61.406
134.000000	61.356
136.000000	61.307
138.000000	61.259
140.000000	61.213
143.000000	61.146
145.000000	61.103
147.500000	61.051
150.000000	61.002
152.500000	60.954
155.000000	60.909
157.500000	60.867
160.000000	60.826
162.500000	60.788
165.000000	60.751
167.500000	60.717
170.000000	60.684
172.500000	60.653
175.000000	60.623
177.500000	60.596
180.000000	60.569
182.500000	60.544
185.000000	60.520
187.500000	60.498
190.000000	60.476
192.500000	60.456
195.000000	60.437
197.500000	60.418
200.000000	60.400
203.000000	60.379
206.000000	60.359
209.000000	60.340
212.000000	60.321
214.000000	60.309
218.000000	60.286
220.000000	60.275
224.000000	60.253
227.000000	60.238
230.000000	60.223
233.000000	60.209
236.000000	60.195
240.000000	60.177
243.000000	60.165
247.000000	60.149
250.000000	60.137
254.000000	60.122
258.000000	60.109
262.000000	60.095
265.000000	60.086
269.000000	60.074
272.000000	60.065
276.000000	60.054
280.000000	60.044
285.000000	60.032
290.000000	60.021
295.000000	60.011
300.000000	60.002
304.000000	59.997
307.000000	59.993
311.000000	59.990
315.000000	59.987
320.000000	59.984
325.000000	59.982
330.000000	59.980
335.000000	59.979
340.000000	59.979
345.000000	59.980
350.000000	59.980
355.000000	59.981
360.000000	59.983
365.000000	59.984
370.000000	59.986
375.000000	59.988
382.000000	59.991
387.000000	59.994
395.000000	59.997
400.000000	59.998
406.000000	59.999
412.000000	60.000
418.000000	60.000
425.000000	60.000
431.000000	60.000
437.000000	60.000
444.000000	60.000
450.000000	60.000
455.000000	60.000
462.000000	60.000
468.000000	60.000
475.000000	60.000
482.000000	60.000
487.000000	60.000
494.000000	60.000
500.000000	60.000
508.000000	59.999
515.000000	59.998
522.000000	59.998
530.000000	59.997
538.000000	59.997
545.000000	59.996
552.000000	59.996
560.000000	59.996
570.000000	59.997
580.000000	59.997
590.000000	59.998
600.000000	59.999
608.000000	59.999
615.000000	59.999
622.000000	59.999
630.000000	59.998
640.000000	59.998
650.000000	59.998
660.000000	59.999
670.000000	59.999
680.000000	60.000
690.000000	60.001
700.000000	60.002
710.000000	60.004
720.000000	60.006
730.000000	60.008
740.000000	60.011
750.000000	60.014
762.000000	60.018
775.000000	60.023
788.000000	60.028
800.000000	60.034
812.000000	60.040
825.000000	60.047
838.000000	60.055
850.000000	60.063
862.000000	60.071
875.000000	60.081
885.000000	60.089
900.000000	60.104
912.000000	60.119
925.000000	60.144
938.000000	60.179
950.000000	60.223
962.000000	60.277
975.000000	60.349
988.000000	60.436
1000.000000	60.529
1015.000000	60.659
1030.000000	60.797
1044.000000	60.929
1060.000000	61.079
1075.000000	61.219
1090.000000	61.358
1106.000000	61.505
1120.000000	61.632
1138.000000	61.794
1150.000000	61.900
1172.000000	62.093
1180.000000	62.162
1206.000000	62.383
1220.000000	62.500
1241.000000	62.673
1250.000000	62.745
1265.000000	62.865
1280.000000	62.984
1315.000000	63.252
1320.000000	63.290
1340.000000	63.438
1360.000000	63.583
1380.000000	63.724
1400.000000	63.862
1430.000000	64.062
1450.000000	64.191
1475.000000	64.345
1500.000000	64.486
1525.000000	64.612
1550.000000	64.725
1575.000000	64.830
1600.000000	64.929
1625.000000	65.022
1650.000000	65.111
1675.000000	65.194
1700.000000	65.274
1725.000000	65.350
1750.000000	65.422
1775.000000	65.491
1800.000000	65.556
1825.000000	65.619
1850.000000	65.680
1875.000000	65.738
1900.000000	65.794
1925.000000	65.848
1950.000000	65.901
1975.000000	65.954
2000.000000	66.007
2030.000000	66.072
2060.000000	66.138
2090.000000	66.203
2120.000000	66.266
2140.000000	66.307
2180.000000	66.386
2200.000000	66.424
2240.000000	66.497
2270.000000	66.549
2300.000000	66.600
2330.000000	66.648
2360.000000	66.695
2400.000000	66.753
2430.000000	66.795
2470.000000	66.848
2500.000000	66.885
2540.000000	66.931
2580.000000	66.971
2620.000000	67.003
2650.000000	67.021
2690.000000	67.038
2720.000000	67.046
2760.000000	67.051
2800.000000	67.051
2850.000000	67.045
2900.000000	67.034
2950.000000	67.019
3000.000000	67.005
3040.000000	66.995
3070.000000	66.988
3110.000000	66.980
3150.000000	66.972
3200.000000	66.961
3250.000000	66.950
3300.000000	66.938
3350.000000	66.925
3400.000000	66.912
3450.000000	66.898
3500.000000	66.884
3550.000000	66.869
3600.000000	66.853
3650.000000	66.836
3700.000000	66.818
3750.000000	66.800
3820.000000	66.774
3870.000000	66.754
3950.000000	66.720
4000.000000	66.697
4060.000000	66.668
4120.000000	66.636
4180.000000	66.603
4250.000000	66.562
4310.000000	66.525
4370.000000	66.486
4440.000000	66.439
4500.000000	66.398
4550.000000	66.362
4620.000000	66.310
4680.000000	66.264
4750.000000	66.208
4820.000000	66.151
4870.000000	66.109
4940.000000	66.048
5000.000000	65.993
5080.000000	65.915
5150.000000	65.843
5220.000000	65.768
5300.000000	65.682
5380.000000	65.593
5450.000000	65.515
5520.000000	65.437
5600.000000	65.347
5700.000000	65.234
5800.000000	65.123
5900.000000	65.014
6000.000000	64.909
6080.000000	64.830
6150.000000	64.764
6220.000000	64.699
6300.000000	64.626
6400.000000	64.536
6500.000000	64.447
6600.000000	64.357
6700.000000	64.268
6800.000000	64.179
6900.000000	64.088
7000.000000	63.994
7100.000000	63.897
7200.000000	63.797
7300.000000	63.695
7400.000000	63.594
7500.000000	63.492
7620.000000	63.372
7750.000000	63.244
7880.000000	63.117
8000.000000	63.003
8120.000000	62.892
8250.000000	62.773
8380.000000	62.657
8500.000000	62.553
8620.000000	62.452
8750.000000	62.345
8850.000000	62.266
9000.000000	62.150
9120.000000	62.061
9250.000000	61.968
9380.000000	61.879
9500.000000	61.800
9620.000000	61.725
9750.000000	61.647
9880.000000	61.574
10000.000000	61.512
10150.000000	61.441
10300.000000	61.375
10440.000000	61.317
10600.000000	61.254
10750.000000	61.196
10900.000000	61.140
11060.000000	61.082
11200.000000	61.032
11380.000000	60.971
11500.000000	60.930
11720.000000	60.859
11800.000000	60.834
12060.000000	60.753
12200.000000	60.711
12410.000000	60.650
12500.000000	60.624
12650.000000	60.581
12800.000000	60.540
13150.000000	60.446
13200.000000	60.433
13400.000000	60.381
13600.000000	60.331
13800.000000	60.281
14000.000000	60.232
14300.000000	60.161
14500.000000	60.114
14750.000000	60.056
15000.000000	59.999
15250.000000	59.942
15500.000000	59.884
15750.000000	59.828
16000.000000	59.773
16250.000000	59.718
16500.000000	59.665
16750.000000	59.613
17000.000000	59.561
17250.000000	59.510
17500.000000	59.460
17750.000000	59.411
18000.000000	59.363
18250.000000	59.316
18500.000000	59.269
18750.000000	59.223
19000.000000	59.178
19250.000000	59.134
19500.000000	59.094
19750.000000	59.061
20000.000000	59.043
